SpectraSuite Data File
++++++++++++++++++++++++++++++++++++
Date: Tue May 29 13:19:37 EEST 2018
User: CanSEE
Dark Spectrum Present: No
Reference Spectrum Present: No
Number of Sampled Component Spectra: 1
Spectrometers: MAYP11278
Integration Time (usec): 220000 (MAYP11278)
Spectra Averaged: 1 (MAYP11278)
Boxcar Smoothing: 0 (MAYP11278)
Correct for Electrical Dark: No (MAYP11278)
Strobe/Lamp Enabled: No (MAYP11278)
Correct for Detector Non-linearity: No (MAYP11278)
Correct for Stray Light: No (MAYP11278)
Number of Pixels in Processed Spectrum: 2068
>>>>>Begin Processed Spectral Data<<<<<
187.82	2352.00
188.30	2241.00
188.78	2220.00
189.26	2218.00
189.73	3434.00
190.21	3618.00
190.69	3766.00
191.17	3794.00
191.64	3802.00
192.12	3782.00
192.60	3766.00
193.07	3725.00
193.55	3820.00
194.03	3773.00
194.51	3789.00
194.98	3764.00
195.46	3794.00
195.94	3767.00
196.42	3774.00
196.89	3853.00
197.37	3777.00
197.85	3718.00
198.32	3750.00
198.80	3706.00
199.28	3782.00
199.76	3823.00
200.23	3766.00
200.71	3752.00
201.19	3807.00
201.66	3838.00
202.14	3801.00
202.62	3747.00
203.09	3792.00
203.57	3698.00
204.05	3784.00
204.53	3830.00
205.00	3700.00
205.48	3700.00
205.96	3841.00
206.43	3727.00
206.91	3794.00
207.39	3884.00
207.86	3764.00
208.34	3819.00
208.82	3747.00
209.29	3840.00
209.77	3812.00
210.25	3760.00
210.72	3753.00
211.20	3789.00
211.68	3809.00
212.15	3722.00
212.63	3845.00
213.11	3775.00
213.58	3777.00
214.06	3878.00
214.53	3817.00
215.01	3828.00
215.49	3800.00
215.96	3760.00
216.44	3777.00
216.92	3852.00
217.39	3748.00
217.87	3802.00
218.35	3820.00
218.82	3704.00
219.30	3727.00
219.77	3761.00
220.25	3808.00
220.73	3878.00
221.20	3779.00
221.68	3824.00
222.15	3728.00
222.63	3844.00
223.11	3759.00
223.58	3792.00
224.06	3766.00
224.53	3746.00
225.01	3716.00
225.49	3773.00
225.96	3755.00
226.44	3759.00
226.91	3757.00
227.39	3732.00
227.87	3843.00
228.34	3816.00
228.82	3806.00
229.29	3763.00
229.77	3777.00
230.24	3770.00
230.72	3798.00
231.20	3830.00
231.67	3757.00
232.15	3762.00
232.62	3716.00
233.10	3760.00
233.57	3825.00
234.05	3974.00
234.53	3773.00
235.00	3769.00
235.48	3771.00
235.95	3779.00
236.43	3805.00
236.90	3916.00
237.38	3769.00
237.85	3777.00
238.33	3799.00
238.80	3812.00
239.28	3787.00
239.75	3724.00
240.23	3820.00
240.71	3822.00
241.18	3786.00
241.66	3726.00
242.13	3816.00
242.61	3826.00
243.08	3747.00
243.56	3766.00
244.03	3785.00
244.51	3852.00
244.98	3760.00
245.46	3840.00
245.93	5844.00
246.41	3717.00
246.88	3795.00
247.36	3818.00
247.83	3845.00
248.31	3766.00
248.78	3756.00
249.26	3773.00
249.73	3853.00
250.21	3817.00
250.68	3846.00
251.16	3801.00
251.63	3908.00
252.10	3829.00
252.58	3766.00
253.05	3880.00
253.53	3799.00
254.00	3775.00
254.48	3796.00
254.95	3830.00
255.43	3873.00
255.90	3769.00
256.38	3809.00
256.85	3836.00
257.33	3824.00
257.80	3924.00
258.27	3815.00
258.75	3796.00
259.22	3782.00
259.70	3844.00
260.17	3902.00
260.65	3792.00
261.12	3753.00
261.59	3841.00
262.07	3787.00
262.54	3860.00
263.02	3832.00
263.49	3740.00
263.97	3838.00
264.44	3896.00
264.91	3830.00
265.39	3815.00
265.86	3821.00
266.34	3828.00
266.81	3787.00
267.28	3814.00
267.76	3832.00
268.23	3779.00
268.71	3739.00
269.18	3740.00
269.65	3755.00
270.13	3815.00
270.60	3846.00
271.08	3837.00
271.55	3822.00
272.02	3794.00
272.50	3773.00
272.97	3678.00
273.44	3782.00
273.92	3966.00
274.39	3816.00
274.87	3810.00
275.34	3750.00
275.81	3772.00
276.29	3786.00
276.76	3791.00
277.23	3682.00
277.71	3739.00
278.18	3670.00
278.65	3878.00
279.13	3700.00
279.60	3758.00
280.07	4110.00
280.55	4023.00
281.02	4070.00
281.50	3836.00
281.97	3944.00
282.44	3838.00
282.91	3846.00
283.39	3832.00
283.86	3785.00
284.33	3812.00
284.81	3876.00
285.28	3858.00
285.75	3867.00
286.23	3814.00
286.70	3796.00
287.17	3866.00
287.65	3908.00
288.12	3855.00
288.59	3853.00
289.07	3748.00
289.54	3910.00
290.01	3812.00
290.48	3824.00
290.96	3800.00
291.43	3889.00
291.90	3946.00
292.38	3801.00
292.85	3855.00
293.32	3782.00
293.79	3889.00
294.27	3882.00
294.74	3804.00
295.21	3864.00
295.69	3902.00
296.16	3924.00
296.63	3918.00
297.10	3912.00
297.58	3830.00
298.05	3855.00
298.52	3835.00
298.99	3878.00
299.47	3788.00
299.94	3840.00
300.41	3842.00
300.88	3811.00
301.36	3848.00
301.83	3876.00
302.30	3742.00
302.77	3871.00
303.25	3896.00
303.72	3786.00
304.19	3780.00
304.66	3808.00
305.13	3839.00
305.61	3858.00
306.08	3826.00
306.55	3830.00
307.02	3752.00
307.49	3802.00
307.97	3854.00
308.44	3801.00
308.91	3816.00
309.38	3906.00
309.86	3854.00
310.33	3818.00
310.80	3865.00
311.27	3796.00
311.74	3844.00
312.21	3855.00
312.69	3928.00
313.16	3779.00
313.63	3840.00
314.10	3853.00
314.57	3790.00
315.05	3768.00
315.52	3894.00
315.99	3904.00
316.46	3828.00
316.93	3854.00
317.40	3792.00
317.88	3981.00
318.35	3844.00
318.82	3809.00
319.29	3776.00
319.76	3836.00
320.23	3912.00
320.70	3886.00
321.18	3825.00
321.65	3763.00
322.12	3784.00
322.59	3912.00
323.06	3794.00
323.53	3997.00
324.00	3768.00
324.48	3876.00
324.95	3856.00
325.42	3868.00
325.89	3793.00
326.36	3851.00
326.83	3852.00
327.30	3898.00
327.77	3901.00
328.24	3883.00
328.72	3838.00
329.19	3849.00
329.66	3874.00
330.13	3871.00
330.60	3876.00
331.07	3866.00
331.54	3999.00
332.01	3814.00
332.48	3886.00
332.95	3890.00
333.43	3904.00
333.90	3934.00
334.37	3884.00
334.84	3892.00
335.31	4067.00
335.78	3754.00
336.25	3894.00
336.72	3870.00
337.19	3860.00
337.66	3830.00
338.13	3830.00
338.60	3918.00
339.07	3862.00
339.54	3780.00
340.01	3779.00
340.49	3715.00
340.96	3789.00
341.43	3866.00
341.90	3784.00
342.37	3813.00
342.84	3808.00
343.31	3779.00
343.78	3757.00
344.25	3796.00
344.72	3758.00
345.19	3794.00
345.66	3789.00
346.13	3773.00
346.60	3798.00
347.07	3876.00
347.54	3766.00
348.01	3862.00
348.48	3830.00
348.95	3720.00
349.42	3772.00
349.89	3863.00
350.36	3783.00
350.83	3768.00
351.30	3815.00
351.77	3926.00
352.24	3850.00
352.71	3809.00
353.18	3770.00
353.65	3850.00
354.12	3789.00
354.59	3839.00
355.06	3816.00
355.53	3910.00
356.00	3759.00
356.47	3906.00
356.94	3780.00
357.41	3956.00
357.88	3838.00
358.35	3704.00
358.82	3759.00
359.28	3770.00
359.75	3783.00
360.22	3851.00
360.69	3914.00
361.16	3742.00
361.63	3802.00
362.10	3850.00
362.57	3839.00
363.04	3819.00
363.51	3962.00
363.98	3854.00
364.45	3800.00
364.92	3885.00
365.39	3804.00
365.86	3772.00
366.32	3800.00
366.79	3823.00
367.26	4660.00
367.73	4212.00
368.20	3771.00
368.67	3854.00
369.14	3780.00
369.61	3860.00
370.08	3853.00
370.55	3786.00
371.02	4840.00
371.48	3832.00
371.95	3769.00
372.42	3765.00
372.89	3816.00
373.36	3880.00
373.83	3791.00
374.30	3797.00
374.77	3852.00
375.23	3737.00
375.70	3944.00
376.17	3789.00
376.64	3764.00
377.11	3779.00
377.58	3819.00
378.05	3818.00
378.51	3846.00
378.98	3828.00
379.45	3774.00
379.92	3871.00
380.39	4024.00
380.86	3848.00
381.33	3880.00
381.79	3914.00
382.26	3788.00
382.73	3852.00
383.20	3806.00
383.67	3875.00
384.14	3838.00
384.60	4065.00
385.07	3830.00
385.54	3807.00
386.01	3828.00
386.48	3928.00
386.94	3768.00
387.41	3822.00
387.88	3875.00
388.35	3876.00
388.82	3908.00
389.28	3814.00
389.75	3891.00
390.22	3838.00
390.69	3838.00
391.16	3878.00
391.62	3844.00
392.09	3817.00
392.56	3792.00
393.03	3839.00
393.50	3934.00
393.96	3836.00
394.43	3878.00
394.90	3839.00
395.37	3898.00
395.83	4040.00
396.30	3759.00
396.77	3858.00
397.24	3898.00
397.70	3821.00
398.17	3830.00
398.64	3798.00
399.11	3787.00
399.57	3908.00
400.04	3762.00
400.51	3823.00
400.98	3772.00
401.44	3840.00
401.91	3844.00
402.38	3830.00
402.84	3762.00
403.31	3898.00
403.78	3834.00
404.25	3904.00
404.71	3913.00
405.18	3888.00
405.65	3754.00
406.12	3910.00
406.58	3782.00
407.05	3934.00
407.52	3814.00
407.98	4714.00
408.45	3800.00
408.92	3732.00
409.38	3874.00
409.85	3776.00
410.32	3928.00
410.78	3774.00
411.25	3882.00
411.72	3817.00
412.18	3738.00
412.65	3875.00
413.12	3794.00
413.59	3837.00
414.05	3846.00
414.52	3922.00
414.98	3794.00
415.45	3914.00
415.92	3849.00
416.38	3749.00
416.85	3887.00
417.32	3843.00
417.78	3794.00
418.25	3819.00
418.72	3792.00
419.18	3852.00
419.65	3783.00
420.12	3848.00
420.58	3787.00
421.05	3804.00
421.51	3814.00
421.98	3846.00
422.45	3767.00
422.91	3846.00
423.38	3793.00
423.85	3795.00
424.31	3820.00
424.78	3874.00
425.24	3802.00
425.71	3865.00
426.18	3778.00
426.64	3924.00
427.11	3832.00
427.57	3868.00
428.04	3806.00
428.51	3870.00
428.97	3857.00
429.44	3810.00
429.90	3848.00
430.37	3998.00
430.83	3734.00
431.30	3846.00
431.77	3899.00
432.23	3906.00
432.70	3843.00
433.16	3800.00
433.63	3823.00
434.09	3804.00
434.56	3852.00
435.03	3788.00
435.49	3862.00
435.96	3828.00
436.42	3762.00
436.89	3876.00
437.35	3828.00
437.82	3805.00
438.28	3792.00
438.75	3812.00
439.21	4049.00
439.68	3849.00
440.14	3839.00
440.61	3910.00
441.07	3822.00
441.54	3832.00
442.00	3944.00
442.47	3763.00
442.94	3860.00
443.40	3846.00
443.87	3758.00
444.33	3936.00
444.80	3844.00
445.26	3850.00
445.73	3804.00
446.19	3805.00
446.65	3774.00
447.12	3804.00
447.58	3762.00
448.05	3784.00
448.51	3857.00
448.98	3806.00
449.44	3798.00
449.91	3752.00
450.37	3745.00
450.84	3735.00
451.30	3782.00
451.77	3808.00
452.23	3750.00
452.70	3834.00
453.16	3781.00
453.62	3763.00
454.09	3763.00
454.55	3773.00
455.02	3750.00
455.48	3780.00
455.95	3793.00
456.41	3717.00
456.88	3807.00
457.34	3721.00
457.80	3729.00
458.27	3634.00
458.73	3765.00
459.20	3761.00
459.66	3775.00
460.13	3710.00
460.59	3658.00
461.05	3783.00
461.52	3744.00
461.98	3664.00
462.45	3664.00
462.91	3763.00
463.37	3666.00
463.84	3710.00
464.30	3694.00
464.76	3692.00
465.23	3676.00
465.69	3741.00
466.16	3710.00
466.62	3674.00
467.08	3678.00
467.55	3680.00
468.01	3684.00
468.48	3676.00
468.94	3633.00
469.40	3638.00
469.87	3676.00
470.33	3670.00
470.79	3620.00
471.26	3563.00
471.72	3538.00
472.18	3597.00
472.65	3609.00
473.11	3716.00
473.57	3626.00
474.04	3582.00
474.50	3602.00
474.96	3565.00
475.43	3634.00
475.89	3620.00
476.35	3647.00
476.82	3618.00
477.28	3604.00
477.74	3682.00
478.21	3616.00
478.67	3650.00
479.13	3559.00
479.59	3674.00
480.06	3590.00
480.52	3597.00
480.98	3538.00
481.45	3605.00
481.91	3608.00
482.37	3548.00
482.84	3587.00
483.30	3555.00
483.76	3558.00
484.22	3682.00
484.69	3620.00
485.15	3565.00
485.61	3463.00
486.07	3594.00
486.54	3494.00
487.00	3571.00
487.46	3498.00
487.92	3518.00
488.39	3544.00
488.85	3578.00
489.31	3584.00
489.77	3628.00
490.24	3521.00
490.70	3588.00
491.16	3482.00
491.62	3512.00
492.09	3538.00
492.55	3609.00
493.01	3588.00
493.47	3576.00
493.94	3574.00
494.40	3566.00
494.86	3534.00
495.32	3570.00
495.78	3580.00
496.25	3533.00
496.71	3601.00
497.17	3682.00
497.63	3650.00
498.09	3556.00
498.56	3599.00
499.02	3570.00
499.48	3736.00
499.94	3596.00
500.40	3576.00
500.87	3603.00
501.33	3585.00
501.79	3634.00
502.25	3610.00
502.71	3908.00
503.17	3636.00
503.64	3634.00
504.10	3602.00
504.56	3678.00
505.02	3654.00
505.48	3619.00
505.94	3684.00
506.40	3706.00
506.87	3686.00
507.33	3751.00
507.79	3724.00
508.25	3676.00
508.71	3674.00
509.17	3718.00
509.63	3731.00
510.10	3770.00
510.56	3742.00
511.02	3863.00
511.48	3960.00
511.94	3782.00
512.40	3818.00
512.86	3834.00
513.32	3928.00
513.78	3800.00
514.25	4004.00
514.71	4737.00
515.17	3910.00
515.63	4091.00
516.09	4028.00
516.55	4025.00
517.01	4182.00
517.47	4162.00
517.93	4104.00
518.39	4372.00
518.85	4330.00
519.32	4230.00
519.78	4313.00
520.24	4400.00
520.70	4484.00
521.16	4540.00
521.62	4606.00
522.08	4594.00
522.54	4678.00
523.00	4841.00
523.46	4830.00
523.92	4858.00
524.38	5106.00
524.84	4990.00
525.30	5077.00
525.76	5080.00
526.22	4988.00
526.68	5040.00
527.14	5170.00
527.60	5281.00
528.06	5366.00
528.52	5402.00
528.98	5478.00
529.44	5429.00
529.90	5556.00
530.36	5630.00
530.82	5595.00
531.28	5740.00
531.74	5704.00
532.20	5722.00
532.66	5674.00
533.12	5765.00
533.58	5776.00
534.04	5752.00
534.50	5811.00
534.96	5944.00
535.42	6016.00
535.88	6006.00
536.34	5942.00
536.80	5899.00
537.26	6116.00
537.72	6093.00
538.18	6109.00
538.64	6158.00
539.10	6085.00
539.56	6284.00
540.02	5962.00
540.48	6064.00
540.94	6105.00
541.40	6144.00
541.86	6161.00
542.32	6242.00
542.78	6156.00
543.24	6326.00
543.69	6190.00
544.15	6388.00
544.61	6331.00
545.07	6256.00
545.53	6300.00
545.99	6380.00
546.45	6368.00
546.91	6429.00
547.37	6404.00
547.83	6325.00
548.29	6378.00
548.74	6392.00
549.20	6458.00
549.66	6488.00
550.12	6488.00
550.58	6356.00
551.04	6463.00
551.50	6514.00
551.96	6578.00
552.42	6465.00
552.87	6446.00
553.33	6616.00
553.79	6504.00
554.25	6546.00
554.71	6620.00
555.17	6546.00
555.63	6656.00
556.08	6520.00
556.54	6502.00
557.00	6378.00
557.46	6424.00
557.92	6482.00
558.38	6226.00
558.83	6274.00
559.29	6281.00
559.75	6208.00
560.21	6186.00
560.67	6273.00
561.13	6160.00
561.58	6126.00
562.04	6134.00
562.50	6158.00
562.96	6124.00
563.42	6136.00
563.87	6025.00
564.33	6012.00
564.79	5986.00
565.25	5824.00
565.71	5754.00
566.16	5852.00
566.62	5786.00
567.08	5730.00
567.54	5746.00
568.00	5624.00
568.45	5544.00
568.91	5576.00
569.37	5607.00
569.83	5492.00
570.28	5377.00
570.74	5348.00
571.20	5298.00
571.66	5328.00
572.11	5326.00
572.57	5261.00
573.03	5252.00
573.49	5194.00
573.94	5200.00
574.40	5170.00
574.86	5120.00
575.32	4991.00
575.77	4988.00
576.23	4934.00
576.69	5069.00
577.15	5006.00
577.60	4868.00
578.06	4837.00
578.52	4942.00
578.97	4879.00
579.43	4792.00
579.89	4895.00
580.34	4805.00
580.80	4845.00
581.26	4801.00
581.72	4797.00
582.17	4755.00
582.63	4656.00
583.09	4804.00
583.54	4722.00
584.00	4712.00
584.46	4712.00
584.91	4585.00
585.37	4774.00
585.83	4606.00
586.28	4569.00
586.74	4628.00
587.20	4575.00
587.65	4648.00
588.11	4481.00
588.57	4498.00
589.02	4420.00
589.48	4434.00
589.94	4500.00
590.39	4482.00
590.85	4466.00
591.30	4498.00
591.76	4497.00
592.22	4458.00
592.67	4488.00
593.13	4464.00
593.59	4470.00
594.04	4474.00
594.50	4442.00
594.95	4512.00
595.41	4402.00
595.87	4420.00
596.32	4502.00
596.78	4462.00
597.23	4508.00
597.69	4436.00
598.15	4386.00
598.60	4400.00
599.06	4523.00
599.51	4380.00
599.97	4434.00
600.43	4432.00
600.88	4422.00
601.34	4388.00
601.79	4299.00
602.25	4473.00
602.70	4336.00
603.16	4412.00
603.61	4308.00
604.07	4303.00
604.53	4404.00
604.98	4346.00
605.44	4382.00
605.89	4338.00
606.35	4214.00
606.80	4286.00
607.26	4271.00
607.71	4332.00
608.17	4307.00
608.62	4245.00
609.08	4383.00
609.53	4314.00
609.99	4210.00
610.44	4194.00
610.90	4267.00
611.35	4122.00
611.81	4296.00
612.26	4210.00
612.72	4188.00
613.17	4289.00
613.63	4061.00
614.08	4062.00
614.54	4094.00
614.99	4072.00
615.45	4104.00
615.90	4061.00
616.36	3995.00
616.81	4088.00
617.27	4064.00
617.72	4074.00
618.18	4048.00
618.63	4013.00
619.09	4023.00
619.54	4072.00
619.99	4040.00
620.45	4100.00
620.90	4084.00
621.36	4030.00
621.81	4076.00
622.27	4106.00
622.72	4027.00
623.18	3956.00
623.63	3926.00
624.08	4039.00
624.54	3910.00
624.99	3982.00
625.45	4033.00
625.90	3944.00
626.35	3956.00
626.81	3999.00
627.26	4017.00
627.72	4006.00
628.17	4024.00
628.62	3904.00
629.08	3975.00
629.53	3980.00
629.99	3918.00
630.44	4002.00
630.89	3966.00
631.35	3994.00
631.80	3992.00
632.26	4025.00
632.71	3904.00
633.16	4005.00
633.62	3894.00
634.07	3924.00
634.52	3936.00
634.98	3906.00
635.43	3942.00
635.88	3870.00
636.34	3940.00
636.79	3885.00
637.24	3875.00
637.70	3912.00
638.15	3981.00
638.60	3900.00
639.06	3882.00
639.51	3869.00
639.96	3824.00
640.42	3888.00
640.87	3906.00
641.32	3783.00
641.78	3844.00
642.23	3789.00
642.68	3750.00
643.14	3763.00
643.59	3843.00
644.04	3785.00
644.49	3737.00
644.95	3768.00
645.40	3714.00
645.85	3790.00
646.31	3744.00
646.76	3757.00
647.21	3770.00
647.66	3737.00
648.12	3732.00
648.57	3641.00
649.02	3744.00
649.47	3704.00
649.93	3944.00
650.38	3652.00
650.83	3698.00
651.28	3660.00
651.74	3709.00
652.19	3674.00
652.64	3674.00
653.09	3614.00
653.55	3664.00
654.00	3723.00
654.45	3680.00
654.90	3668.00
655.35	3634.00
655.81	3644.00
656.26	3624.00
656.71	3684.00
657.16	3672.00
657.62	3692.00
658.07	3622.00
658.52	3662.00
658.97	3586.00
659.42	3865.00
659.88	3604.00
660.33	3742.00
660.78	3646.00
661.23	3604.00
661.68	3664.00
662.13	3628.00
662.59	3526.00
663.04	3676.00
663.49	3596.00
663.94	3580.00
664.39	3632.00
664.84	3585.00
665.30	3652.00
665.75	3556.00
666.20	3620.00
666.65	3594.00
667.10	3768.00
667.55	3666.00
668.00	3602.00
668.46	3615.00
668.91	3578.00
669.36	3777.00
669.81	3499.00
670.26	3602.00
670.71	3658.00
671.16	3608.00
671.61	3706.00
672.06	3716.00
672.52	3592.00
672.97	3555.00
673.42	3628.00
673.87	3766.00
674.32	3622.00
674.77	3656.00
675.22	3537.00
675.67	3576.00
676.12	3634.00
676.57	3602.00
677.02	3582.00
677.47	3580.00
677.93	3741.00
678.38	3587.00
678.83	3614.00
679.28	3630.00
679.73	3604.00
680.18	3615.00
680.63	3648.00
681.08	3534.00
681.53	3528.00
681.98	3598.00
682.43	3646.00
682.88	3633.00
683.33	3618.00
683.78	3650.00
684.23	3706.00
684.68	3662.00
685.13	3678.00
685.58	3700.00
686.03	3638.00
686.48	3628.00
686.93	3678.00
687.38	3736.00
687.83	3706.00
688.28	3714.00
688.73	3900.00
689.18	3840.00
689.63	3717.00
690.08	3828.00
690.53	3848.00
690.98	3826.00
691.43	3912.00
691.88	3958.00
692.33	4116.00
692.78	4098.00
693.23	4255.00
693.68	4282.00
694.13	4376.00
694.58	4399.00
695.03	4756.00
695.48	4642.00
695.93	4804.00
696.38	5080.00
696.83	5086.00
697.28	5196.00
697.72	5438.00
698.17	5571.00
698.62	5772.00
699.07	5924.00
699.52	6112.00
699.97	6342.00
700.42	6614.00
700.87	6854.00
701.32	7202.00
701.77	7258.00
702.22	7590.00
702.67	7752.00
703.11	8044.00
703.56	8353.00
704.01	8550.00
704.46	9098.00
704.91	9372.00
705.36	9738.00
705.81	9840.00
706.26	10160.00
706.70	10448.00
707.15	10832.00
707.60	11172.00
708.05	11572.00
708.50	11802.00
708.95	12154.00
709.40	12484.00
709.84	12848.00
710.29	13172.00
710.74	13536.00
711.19	13878.00
711.64	14186.00
712.09	14602.00
712.53	14934.00
712.98	15442.00
713.43	15710.00
713.88	16172.00
714.33	16494.00
714.78	16625.00
715.22	16952.00
715.67	17222.00
716.12	17232.00
716.57	17124.00
717.02	16746.00
717.46	16616.00
717.91	16843.00
718.36	16810.00
718.81	16942.00
719.26	17234.00
719.70	17654.00
720.15	18208.00
720.60	19008.00
721.05	20676.00
721.49	21824.00
721.94	22368.00
722.39	22512.00
722.84	22348.00
723.28	22081.00
723.73	21952.00
724.18	22390.00
724.63	23032.00
725.07	23250.00
725.52	23904.00
725.97	24662.00
726.42	25156.00
726.86	26019.00
727.31	25799.00
727.76	26337.00
728.21	27009.00
728.65	27267.00
729.10	27504.00
729.55	28310.00
729.99	29109.00
730.44	29394.00
730.89	30376.00
731.33	31210.00
731.78	32143.00
732.23	33214.00
732.68	33814.00
733.12	34522.00
733.57	35731.00
734.02	36444.00
734.46	36876.00
734.91	37266.00
735.36	37684.00
735.80	38329.00
736.25	38723.00
736.70	39162.00
737.14	39758.00
737.59	40496.00
738.04	40711.00
738.48	40480.00
738.93	41092.00
739.37	41734.00
739.82	42672.00
740.27	43132.00
740.71	42974.00
741.16	43488.00
741.61	43679.00
742.05	44120.00
742.50	44676.00
742.94	44782.00
743.39	45434.00
743.84	45652.00
744.28	45678.00
744.73	45966.00
745.18	46808.00
745.62	47150.00
746.07	47552.00
746.51	47430.00
746.96	47518.00
747.40	47400.00
747.85	47512.00
748.30	47714.00
748.74	47645.00
749.19	47545.00
749.63	48014.00
750.08	47848.00
750.52	48116.00
750.97	48188.00
751.42	48388.00
751.86	48322.00
752.31	48218.00
752.75	48301.00
753.20	48288.00
753.64	48398.00
754.09	48789.00
754.53	48590.00
754.98	48608.00
755.42	48716.00
755.87	48758.00
756.31	48580.00
756.76	48226.00
757.20	48260.00
757.65	47606.00
758.09	46915.00
758.54	45452.00
758.98	40224.00
759.43	31864.00
759.87	23264.00
760.32	18431.00
760.76	18450.00
761.21	22556.00
761.65	26762.00
762.10	27946.00
762.54	26495.00
762.99	25282.00
763.43	25966.00
763.88	27801.00
764.32	30064.00
764.77	32462.00
765.21	34634.00
765.66	36775.00
766.10	38934.00
766.54	40844.00
766.99	42286.00
767.43	43908.00
767.88	44620.00
768.32	45697.00
768.77	46152.00
769.21	46769.00
769.66	47298.00
770.10	47956.00
770.54	48585.00
770.99	48320.00
771.43	48081.00
771.88	48064.00
772.32	48298.00
772.76	48096.00
773.21	47917.00
773.65	47850.00
774.10	47489.00
774.54	47468.00
774.98	47368.00
775.43	47984.00
775.87	48590.00
776.31	48653.00
776.76	48658.00
777.20	48250.00
777.65	48037.00
778.09	47785.00
778.53	47569.00
778.98	47129.00
779.42	47300.00
779.86	47026.00
780.31	47180.00
780.75	47512.00
781.19	47548.00
781.64	47803.00
782.08	48037.00
782.52	47762.00
782.97	47248.00
783.41	46990.00
783.85	46660.00
784.30	46368.00
784.74	46186.00
785.18	46124.00
785.63	46003.00
786.07	45959.00
786.51	46314.00
786.95	46430.00
787.40	46016.00
787.84	45791.00
788.28	45660.00
788.73	45418.00
789.17	44874.00
789.61	44420.00
790.05	44208.00
790.50	43804.00
790.94	43680.00
791.38	43890.00
791.82	43876.00
792.27	43884.00
792.71	43928.00
793.15	44453.00
793.59	44144.00
794.04	43915.00
794.48	43568.00
794.92	43289.00
795.36	42908.00
795.81	42516.00
796.25	42350.00
796.69	42706.00
797.13	43076.00
797.57	43520.00
798.02	43594.00
798.46	43928.00
798.90	43759.00
799.34	43312.00
799.79	42796.00
800.23	42034.00
800.67	42082.00
801.11	41717.00
801.55	41532.00
801.99	41326.00
802.44	41494.00
802.88	41772.00
803.32	42298.00
803.76	42326.00
804.20	42534.00
804.64	42394.00
805.09	42452.00
805.53	42516.00
805.97	42062.00
806.41	41642.00
806.85	41090.00
807.29	40670.00
807.74	40477.00
808.18	40486.00
808.62	40446.00
809.06	40552.00
809.50	40510.00
809.94	40724.00
810.38	40676.00
810.82	40988.00
811.27	40560.00
811.71	39774.00
812.15	38916.00
812.59	37870.00
813.03	37071.00
813.47	35876.00
813.91	34958.00
814.35	34422.00
814.79	34080.00
815.23	33755.00
815.67	33426.00
816.12	33776.00
816.56	33366.00
817.00	33628.00
817.44	34262.00
817.88	34072.00
818.32	33654.00
818.76	33900.00
819.20	33804.00
819.64	34236.00
820.08	34289.00
820.52	35252.00
820.96	35868.00
821.40	35230.00
821.84	33974.00
822.28	32358.00
822.72	32194.00
823.16	32018.00
823.60	34058.00
824.04	36100.00
824.48	36540.00
824.92	36293.00
825.36	36388.00
825.80	35856.00
826.24	35428.00
826.68	35070.00
827.12	35164.00
827.56	34436.00
828.00	34278.00
828.44	34654.00
828.88	35288.00
829.32	35467.00
829.76	35620.00
830.20	36390.00
830.64	35644.00
831.08	35646.00
831.52	35052.00
831.96	34584.00
832.40	34083.00
832.84	34546.00
833.28	34806.00
833.72	35491.00
834.16	36132.00
834.60	36888.00
835.04	37387.00
835.48	37867.00
835.91	37652.00
836.35	37576.00
836.79	37276.00
837.23	37160.00
837.67	36508.00
838.11	36481.00
838.55	36440.00
838.99	36600.00
839.43	36812.00
839.87	37466.00
840.30	37676.00
840.74	38238.00
841.18	38296.00
841.62	38642.00
842.06	38778.00
842.50	38585.00
842.94	38096.00
843.38	37890.00
843.81	37049.00
844.25	36728.00
844.69	36249.00
845.13	36316.00
845.57	36528.00
846.01	36472.00
846.45	36797.00
846.88	37236.00
847.32	37516.00
847.76	38067.00
848.20	38286.00
848.64	37740.00
849.08	37256.00
849.51	37136.00
849.95	36306.00
850.39	36398.00
850.83	36834.00
851.27	36644.00
851.70	36206.00
852.14	35796.00
852.58	35196.00
853.02	33948.00
853.46	32892.00
853.89	32980.00
854.33	32948.00
854.77	34528.00
855.21	36658.00
855.65	37526.00
856.08	38328.00
856.52	38258.00
856.96	38059.00
857.40	37254.00
857.83	36512.00
858.27	35888.00
858.71	35284.00
859.15	35348.00
859.58	35492.00
860.02	35774.00
860.46	36434.00
860.89	37041.00
861.33	37112.00
861.77	37634.00
862.21	38014.00
862.64	38382.00
863.08	38062.00
863.52	37551.00
863.95	36907.00
864.39	36200.00
864.83	34816.00
865.27	33420.00
865.70	33218.00
866.14	32290.00
866.58	32830.00
867.01	34286.00
867.45	35308.00
867.89	36046.00
868.32	36852.00
868.76	37406.00
869.20	37410.00
869.63	37569.00
870.07	37178.00
870.51	36344.00
870.94	35570.00
871.38	34886.00
871.82	34170.00
872.25	33848.00
872.69	33696.00
873.13	33967.00
873.56	34312.00
874.00	34974.00
874.43	35409.00
874.87	35789.00
875.31	36264.00
875.74	36322.00
876.18	36528.00
876.61	36477.00
877.05	36334.00
877.49	35775.00
877.92	35508.00
878.36	34918.00
878.79	34170.00
879.23	33472.00
879.67	32872.00
880.10	33152.00
880.54	32770.00
880.97	33348.00
881.41	34194.00
881.84	35260.00
882.28	35662.00
882.72	36248.00
883.15	36809.00
883.59	36910.00
884.02	36726.00
884.46	36378.00
884.89	35773.00
885.33	35238.00
885.76	34288.00
886.20	33720.00
886.63	33072.00
887.07	32802.00
887.50	32780.00
887.94	33128.00
888.37	33200.00
888.81	33846.00
889.24	33904.00
889.68	34282.00
890.11	34612.00
890.55	35247.00
890.98	35456.00
891.42	35452.00
891.85	35378.00
892.29	34985.00
892.72	34050.00
893.16	32890.00
893.59	32378.00
894.03	31454.00
894.46	30282.00
894.90	29346.00
895.33	28125.00
895.77	28185.00
896.20	27734.00
896.63	28036.00
897.07	28066.00
897.50	27512.00
897.94	28098.00
898.37	29034.00
898.81	27242.00
899.24	27712.00
899.68	28760.00
900.11	28188.00
900.54	27578.00
900.98	27242.00
901.41	26842.00
901.85	27294.00
902.28	27278.00
902.71	27682.00
903.15	28476.00
903.58	29316.00
904.02	29096.00
904.45	29306.00
904.88	28948.00
905.32	28744.00
905.75	28622.00
906.18	27872.00
906.62	27977.00
907.05	27408.00
907.48	27584.00
907.92	27214.00
908.35	27269.00
908.79	26676.00
909.22	26714.00
909.65	26326.00
910.09	26322.00
910.52	25744.00
910.95	25926.00
911.38	25847.00
911.82	24978.00
912.25	25684.00
912.68	26216.00
913.12	25772.00
913.55	26182.00
913.98	27096.00
914.42	28238.00
914.85	28264.00
915.28	26964.00
915.72	26978.00
916.15	26648.00
916.58	26614.00
917.01	25622.00
917.45	25130.00
917.88	25864.00
918.31	26174.00
918.74	27060.00
919.18	27264.00
919.61	27315.00
920.04	27946.00
920.47	28102.00
920.91	28309.00
921.34	28014.00
921.77	28548.00
922.20	29040.00
922.64	28846.00
923.07	28448.00
923.50	28282.00
923.93	27872.00
924.37	27636.00
924.80	27113.00
925.23	26812.00
925.66	25870.00
926.09	24638.00
926.53	24036.00
926.96	23182.00
927.39	22154.00
927.82	21034.00
928.25	20205.00
928.69	20002.00
929.12	19526.00
929.55	18591.00
929.98	17958.00
930.41	16814.00
930.84	16168.00
931.28	14813.00
931.71	13632.00
932.14	12449.00
932.57	12088.00
933.00	11610.00
933.43	11036.00
933.86	10260.00
934.30	10110.00
934.73	11248.00
935.16	10526.00
935.59	10026.00
936.02	10492.00
936.45	10296.00
936.88	10382.00
937.31	11462.00
937.75	11876.00
938.18	12430.00
938.61	12983.00
939.04	13718.00
939.47	13302.00
939.90	12542.00
940.33	12148.00
940.76	11318.00
941.19	10788.00
941.62	10658.00
942.05	10388.00
942.48	9396.00
942.91	9570.00
943.35	9937.00
943.78	9302.00
944.21	9314.00
944.64	10048.00
945.07	10278.00
945.50	10177.00
945.93	10288.00
946.36	10644.00
946.79	11124.00
947.22	11720.00
947.65	11184.00
948.08	10905.00
948.51	11814.00
948.94	11926.00
949.37	11292.00
949.80	10854.00
950.23	11214.00
950.66	11780.00
951.09	11526.00
951.52	11070.00
951.95	11182.00
952.38	11432.00
952.81	12256.00
953.24	12884.00
953.67	12876.00
954.10	12938.00
954.53	13329.00
954.96	13144.00
955.39	13786.00
955.82	14440.00
956.25	14014.00
956.68	14364.00
957.11	14562.00
957.53	14152.00
957.96	14014.00
958.39	13611.00
958.82	13082.00
959.25	13650.00
959.68	14108.00
960.11	14256.00
960.54	14630.00
960.97	15448.00
961.40	15807.00
961.83	15596.00
962.26	15986.00
962.68	17216.00
963.11	17370.00
963.54	17484.00
963.97	17650.00
964.40	17620.00
964.83	18148.00
965.26	18292.00
965.69	17850.00
966.11	17922.00
966.54	18146.00
966.97	18884.00
967.40	18946.00
967.83	19169.00
968.26	18962.00
968.69	19186.00
969.11	19124.00
969.54	18804.00
969.97	19294.00
970.40	19502.00
970.83	19778.00
971.26	19677.00
971.68	19718.00
972.11	19818.00
972.54	20276.00
972.97	20000.00
973.40	19834.00
973.82	19790.00
974.25	19812.00
974.68	19564.00
975.11	19276.00
975.54	18854.00
975.96	18696.00
976.39	18750.00
976.82	18854.00
977.25	18520.00
977.67	18472.00
978.10	18440.00
978.53	18850.00
978.96	19345.00
979.38	19589.00
979.81	19950.00
980.24	20562.00
980.67	20871.00
981.09	21152.00
981.52	21427.00
981.95	21314.00
982.38	21506.00
982.80	21659.00
983.23	21970.00
983.66	22116.00
984.08	21792.00
984.51	21489.00
984.94	21312.00
985.37	21238.00
985.79	20760.00
986.22	20196.00
986.65	20162.00
987.07	19920.00
987.50	19713.00
987.93	19706.00
988.35	19892.00
988.78	20088.00
989.21	20014.00
989.63	20396.00
990.06	20942.00
990.49	21019.00
990.91	21480.00
991.34	21598.00
991.77	21733.00
992.19	21788.00
992.62	21644.00
993.05	21514.00
993.47	21504.00
993.90	21088.00
994.32	20794.00
994.75	20466.00
995.18	20010.00
995.60	19954.00
996.03	19570.00
996.45	19492.00
996.88	19146.00
997.31	19114.00
997.73	19146.00
998.16	19111.00
998.58	19354.00
999.01	19386.00
999.44	19620.00
999.86	20008.00
1000.29	19960.00
1000.71	20178.00
1001.14	20308.00
1001.56	20144.00
1001.99	20150.00
1002.41	19704.00
1002.84	19479.00
1003.27	19184.00
1003.69	18766.00
1004.12	18272.00
1004.54	17998.00
1004.97	17774.00
1005.39	17543.00
1005.82	17420.00
1006.24	17340.00
1006.67	17297.00
1007.09	17252.00
1007.52	17162.00
1007.94	17194.00
1008.37	17478.00
1008.79	17400.00
1009.22	17464.00
1009.64	17562.00
1010.07	17502.00
1010.49	17552.00
1010.92	17662.00
1011.34	17708.00
1011.77	17650.00
1012.19	17565.00
1012.62	17578.00
1013.04	17036.00
1013.46	17072.00
1013.89	16524.00
1014.31	16432.00
1014.74	15988.00
1015.16	15680.00
1015.59	15640.00
1016.01	15690.00
1016.44	15647.00
1016.86	17025.00
1017.28	15816.00
1017.71	16036.00
1018.13	16326.00
1018.56	16380.00
1018.98	16444.00
1019.40	16480.00
1019.83	16752.00
1020.25	16706.00
1020.68	16794.00
1021.10	17074.00
1021.52	17192.00
1021.95	17372.00
1022.37	17207.00
1022.79	17150.00
1023.22	16920.00
1023.64	16910.00
1024.07	16575.00
1024.49	16438.00
1024.91	16336.00
1025.34	15992.00
1025.76	15996.00
1026.18	15728.00
1026.61	15602.00
1027.03	15496.00
1027.45	15503.00
1027.88	15480.00
1028.30	15771.00
1028.72	15808.00
1029.15	15830.00
1029.57	16049.00
1029.99	16024.00
1030.41	16003.00
1030.84	15917.00
1031.26	16032.00
1031.68	15768.00
1032.11	15692.00
1032.53	15478.00
1032.95	15267.00
1033.37	15188.00
1033.80	15044.00
1034.22	14644.00
1034.64	14654.00
1035.06	14194.00
1035.49	14032.00
1035.91	13838.00
1036.33	13688.00
1036.75	13616.00
1037.18	13488.00
1037.60	13541.00
1038.02	13530.00
1038.44	13574.00
1038.87	13464.00
1039.29	13504.00
1039.71	13539.00
1040.13	13562.00
1040.55	13622.00
1040.98	13598.00
1041.40	13583.00
1041.82	13400.00
1042.24	13299.00
1042.66	13220.00
1043.09	12914.00
1043.51	12754.00
1043.93	12707.00
1044.35	12477.00
1044.77	12342.00
1045.20	12150.00
1045.62	11858.00
1046.04	11850.00
1046.46	11692.00
1046.88	11532.00
1047.30	11476.00
1047.72	11448.00
1048.15	11238.00
1048.57	11190.00
1048.99	11112.00
1049.41	11152.00
1049.83	11150.00
1050.25	11220.00
1050.67	11062.00
1051.09	11039.00
1051.52	11067.00
1051.94	10932.00
1052.36	10970.00
1052.78	10728.00
1053.20	10804.00
1053.62	10754.00
1054.04	10646.00
1054.46	10570.00
1054.88	10672.00
1055.30	10399.00
1055.72	10284.00
1056.14	10112.00
1056.57	10264.00
1056.99	9908.00
1057.41	9692.00
1057.83	9672.00
1058.25	9504.00
1058.67	9396.00
1059.09	9274.00
1059.51	9320.00
1059.93	9062.00
1060.35	9120.00
1060.77	9172.00
1061.19	9129.00
1061.61	8984.00
1062.03	8974.00
1062.45	8916.00
1062.87	8832.00
1063.29	8876.00
1063.71	8812.00
1064.13	8674.00
1064.55	8660.00
1064.97	8635.00
1065.39	8554.00
1065.81	8498.00
1066.23	8490.00
1066.65	8410.00
1067.07	8361.00
1067.49	8180.00
1067.91	8146.00
1068.33	7986.00
1068.75	7996.00
1069.17	8018.00
1069.59	7889.00
1070.00	7835.00
1070.42	7734.00
1070.84	7678.00
1071.26	7588.00
1071.68	7544.00
1072.10	7604.00
1072.52	7546.00
1072.94	7435.00
1073.36	7469.00
1073.78	7398.00
1074.20	7453.00
1074.62	7422.00
1075.03	7345.00
1075.45	7360.00
1075.87	7366.00
1076.29	7316.00
1076.71	7310.00
1077.13	7256.00
1077.55	7116.00
1077.97	7187.00
1078.38	7100.00
1078.80	6942.00
1079.22	6968.00
1079.64	6840.00
1080.06	6793.00
1080.48	6788.00
1080.89	6654.00
1081.31	6630.00
1081.73	6576.00
1082.15	6539.00
1082.57	6512.00
1082.99	6413.00
1083.40	6401.00
1083.82	6480.00
1084.24	6297.00
1084.66	6299.00
1085.08	6254.00
1085.49	6140.00
1085.91	6343.00
1086.33	7706.00
1086.75	6200.00
1087.17	6192.00
1087.58	6180.00
1088.00	6180.00
1088.42	6228.00
1088.84	6075.00
1089.25	6004.00
1089.67	6008.00
1090.09	5945.00
1090.51	5866.00
1090.92	5868.00
1091.34	5736.00
1091.76	5724.00
1092.18	5636.00
1092.59	5606.00
1093.01	5542.00
1093.43	5505.00
1093.84	5498.00
1094.26	5444.00
1094.68	5452.00
1095.10	5363.00
1095.51	5356.00
1095.93	5308.00
1096.35	5363.00
1096.76	5350.00
1097.18	5405.00
1097.60	5208.00
1098.01	5238.00
1098.43	5168.00
1098.85	5146.00
1099.26	5122.00
1099.68	5064.00
1100.10	5019.00
1100.51	4964.00
1100.93	4904.00
1101.35	4891.00
1101.76	4924.00
1102.18	5370.00
1102.60	4810.00
1103.01	4700.00
1103.43	4706.00
1103.84	4728.00
1104.26	4668.00
1104.68	4644.00
1105.09	4608.00
1105.51	4574.00
1105.92	4654.00
1106.34	4505.00
1106.76	4549.00
1107.17	4512.00
1107.59	4468.00
1108.00	4338.00
1108.42	4374.00
1108.83	4294.00
1109.25	4317.00
1109.67	4254.00
1110.08	4252.00
1110.50	4218.00
1110.91	4174.00
1111.33	4150.00
1111.74	4084.00
1112.16	4068.00
1112.57	4114.00
1112.99	3962.00
1113.41	3981.00
1113.82	3922.00
1114.24	3867.00
1114.65	3817.00
1115.07	3704.00
1115.48	3557.00
1115.90	2185.00
1116.31	2224.00
1116.73	2220.00
1117.14	2221.00
>>>>>End Processed Spectral Data<<<<<
