SpectraSuite Data File
++++++++++++++++++++++++++++++++++++
Date: Tue May 29 13:19:52 EEST 2018
User: CanSEE
Dark Spectrum Present: No
Reference Spectrum Present: No
Number of Sampled Component Spectra: 1
Spectrometers: MAYP11278
Integration Time (usec): 220000 (MAYP11278)
Spectra Averaged: 1 (MAYP11278)
Boxcar Smoothing: 0 (MAYP11278)
Correct for Electrical Dark: No (MAYP11278)
Strobe/Lamp Enabled: No (MAYP11278)
Correct for Detector Non-linearity: No (MAYP11278)
Correct for Stray Light: No (MAYP11278)
Number of Pixels in Processed Spectrum: 2068
>>>>>Begin Processed Spectral Data<<<<<
187.82	2351.00
188.30	2235.00
188.78	2218.00
189.26	2216.00
189.73	3426.00
190.21	3580.00
190.69	3672.00
191.17	3650.00
191.64	3712.00
192.12	3682.00
192.60	3648.00
193.07	3638.00
193.55	3694.00
194.03	3670.00
194.51	3696.00
194.98	3630.00
195.46	3724.00
195.94	3618.00
196.42	3659.00
196.89	3770.00
197.37	3654.00
197.85	3606.00
198.32	3644.00
198.80	3660.00
199.28	3678.00
199.76	3712.00
200.23	3688.00
200.71	3672.00
201.19	3660.00
201.66	3722.00
202.14	3672.00
202.62	3650.00
203.09	3686.00
203.57	3593.00
204.05	3672.00
204.53	3760.00
205.00	3660.00
205.48	3632.00
205.96	3744.00
206.43	3624.00
206.91	3694.00
207.39	3822.00
207.86	3660.00
208.34	3710.00
208.82	3658.00
209.29	3698.00
209.77	3761.00
210.25	3678.00
210.72	3676.00
211.20	3693.00
211.68	3698.00
212.15	3666.00
212.63	3748.00
213.11	3682.00
213.58	3636.00
214.06	3804.00
214.53	3692.00
215.01	3768.00
215.49	3704.00
215.96	3737.00
216.44	3698.00
216.92	3730.00
217.39	3620.00
217.87	3738.00
218.35	3731.00
218.82	3648.00
219.30	3652.00
219.77	3618.00
220.25	3694.00
220.73	3802.00
221.20	3668.00
221.68	3748.00
222.15	3676.00
222.63	3758.00
223.11	3658.00
223.58	3725.00
224.06	3652.00
224.53	3648.00
225.01	3660.00
225.49	3678.00
225.96	3684.00
226.44	3690.00
226.91	3732.00
227.39	3682.00
227.87	3753.00
228.34	3737.00
228.82	3736.00
229.29	3724.00
229.77	3713.00
230.24	3676.00
230.72	3716.00
231.20	3772.00
231.67	3737.00
232.15	3696.00
232.62	3666.00
233.10	3739.00
233.57	3692.00
234.05	3855.00
234.53	3726.00
235.00	3684.00
235.48	3666.00
235.95	3692.00
236.43	3752.00
236.90	3800.00
237.38	3707.00
237.85	3718.00
238.33	3696.00
238.80	3747.00
239.28	3732.00
239.75	3610.00
240.23	3728.00
240.71	3721.00
241.18	3686.00
241.66	3696.00
242.13	3730.00
242.61	3755.00
243.08	3650.00
243.56	3713.00
244.03	3726.00
244.51	3758.00
244.98	3686.00
245.46	3742.00
245.93	5610.00
246.41	3614.00
246.88	3730.00
247.36	3732.00
247.83	3747.00
248.31	3729.00
248.78	3662.00
249.26	3688.00
249.73	3730.00
250.21	3737.00
250.68	3758.00
251.16	3745.00
251.63	3892.00
252.10	3787.00
252.58	3682.00
253.05	3731.00
253.53	3723.00
254.00	3682.00
254.48	3718.00
254.95	3696.00
255.43	3758.00
255.90	3694.00
256.38	3752.00
256.85	3712.00
257.33	3788.00
257.80	3842.00
258.27	3739.00
258.75	3716.00
259.22	3672.00
259.70	3730.00
260.17	3810.00
260.65	3672.00
261.12	3726.00
261.59	3790.00
262.07	3668.00
262.54	3754.00
263.02	3760.00
263.49	3662.00
263.97	3772.00
264.44	3815.00
264.91	3700.00
265.39	3750.00
265.86	3748.00
266.34	3833.00
266.81	3693.00
267.28	3760.00
267.76	3741.00
268.23	3741.00
268.71	3614.00
269.18	3647.00
269.65	3682.00
270.13	3748.00
270.60	3724.00
271.08	3690.00
271.55	3716.00
272.02	3694.00
272.50	3704.00
272.97	3632.00
273.44	3704.00
273.92	3854.00
274.39	3742.00
274.87	3746.00
275.34	3652.00
275.81	3652.00
276.29	3736.00
276.76	3686.00
277.23	3592.00
277.71	3666.00
278.18	3579.00
278.65	3806.00
279.13	3634.00
279.60	3666.00
280.07	3924.00
280.55	3898.00
281.02	4075.00
281.50	3751.00
281.97	3839.00
282.44	3742.00
282.91	3741.00
283.39	3788.00
283.86	3722.00
284.33	3713.00
284.81	3766.00
285.28	3758.00
285.75	3813.00
286.23	3739.00
286.70	3640.00
287.17	3729.00
287.65	3800.00
288.12	3750.00
288.59	3742.00
289.07	3649.00
289.54	3835.00
290.01	3753.00
290.48	3734.00
290.96	3692.00
291.43	3747.00
291.90	3852.00
292.38	3710.00
292.85	3813.00
293.32	3718.00
293.79	3727.00
294.27	3768.00
294.74	3708.00
295.21	3786.00
295.69	3775.00
296.16	3862.00
296.63	3838.00
297.10	3759.00
297.58	3794.00
298.05	3777.00
298.52	3705.00
298.99	3872.00
299.47	3735.00
299.94	3799.00
300.41	3726.00
300.88	3811.00
301.36	3737.00
301.83	3773.00
302.30	3708.00
302.77	3770.00
303.25	3790.00
303.72	3721.00
304.19	3718.00
304.66	3725.00
305.13	3789.00
305.61	3771.00
306.08	3729.00
306.55	3794.00
307.02	3730.00
307.49	3723.00
307.97	3785.00
308.44	3736.00
308.91	3807.00
309.38	3792.00
309.86	3776.00
310.33	3754.00
310.80	3778.00
311.27	3744.00
311.74	3830.00
312.21	3764.00
312.69	3866.00
313.16	3739.00
313.63	3754.00
314.10	3770.00
314.57	3773.00
315.05	3701.00
315.52	3814.00
315.99	3811.00
316.46	3782.00
316.93	3764.00
317.40	3771.00
317.88	3916.00
318.35	3764.00
318.82	3764.00
319.29	3722.00
319.76	3779.00
320.23	3880.00
320.70	3825.00
321.18	3754.00
321.65	3676.00
322.12	3717.00
322.59	3842.00
323.06	3763.00
323.53	3914.00
324.00	3686.00
324.48	3782.00
324.95	3762.00
325.42	3739.00
325.89	3741.00
326.36	3759.00
326.83	3762.00
327.30	3803.00
327.77	3812.00
328.24	3828.00
328.72	3748.00
329.19	3728.00
329.66	3764.00
330.13	3764.00
330.60	3802.00
331.07	3810.00
331.54	3864.00
332.01	3743.00
332.48	3864.00
332.95	3876.00
333.43	3757.00
333.90	3855.00
334.37	3772.00
334.84	3851.00
335.31	3954.00
335.78	3739.00
336.25	3799.00
336.72	3734.00
337.19	3787.00
337.66	3742.00
338.13	3787.00
338.60	3832.00
339.07	3820.00
339.54	3715.00
340.01	3737.00
340.49	3692.00
340.96	3760.00
341.43	3817.00
341.90	3717.00
342.37	3770.00
342.84	3776.00
343.31	3736.00
343.78	3737.00
344.25	3780.00
344.72	3692.00
345.19	3764.00
345.66	3810.00
346.13	3747.00
346.60	3747.00
347.07	3814.00
347.54	3747.00
348.01	3860.00
348.48	3790.00
348.95	3713.00
349.42	3812.00
349.89	3779.00
350.36	3756.00
350.83	3740.00
351.30	3806.00
351.77	3906.00
352.24	3848.00
352.71	3779.00
353.18	3772.00
353.65	3824.00
354.12	3844.00
354.59	3828.00
355.06	3806.00
355.53	3873.00
356.00	3718.00
356.47	3878.00
356.94	3728.00
357.41	3922.00
357.88	3826.00
358.35	3720.00
358.82	3756.00
359.28	3754.00
359.75	3768.00
360.22	3850.00
360.69	3864.00
361.16	3773.00
361.63	3774.00
362.10	3784.00
362.57	3820.00
363.04	3794.00
363.51	3914.00
363.98	3788.00
364.45	3761.00
364.92	3835.00
365.39	3715.00
365.86	3764.00
366.32	3795.00
366.79	3785.00
367.26	4840.00
367.73	4122.00
368.20	3725.00
368.67	3795.00
369.14	3738.00
369.61	3836.00
370.08	3771.00
370.55	3737.00
371.02	4514.00
371.48	3785.00
371.95	3766.00
372.42	3718.00
372.89	3769.00
373.36	3816.00
373.83	3729.00
374.30	3698.00
374.77	3778.00
375.23	3734.00
375.70	3899.00
376.17	3782.00
376.64	3734.00
377.11	3736.00
377.58	3787.00
378.05	3773.00
378.51	3792.00
378.98	3796.00
379.45	3780.00
379.92	3826.00
380.39	3916.00
380.86	3801.00
381.33	3862.00
381.79	3882.00
382.26	3700.00
382.73	3790.00
383.20	3777.00
383.67	3832.00
384.14	3813.00
384.60	4100.00
385.07	3789.00
385.54	3773.00
386.01	3760.00
386.48	3858.00
386.94	3768.00
387.41	3725.00
387.88	3798.00
388.35	3836.00
388.82	3818.00
389.28	3756.00
389.75	3807.00
390.22	3793.00
390.69	3808.00
391.16	3761.00
391.62	3794.00
392.09	3778.00
392.56	3781.00
393.03	3749.00
393.50	3936.00
393.96	3753.00
394.43	3878.00
394.90	3780.00
395.37	3828.00
395.83	4025.00
396.30	3729.00
396.77	3826.00
397.24	3834.00
397.70	3760.00
398.17	3854.00
398.64	3802.00
399.11	3790.00
399.57	3843.00
400.04	3696.00
400.51	3814.00
400.98	3786.00
401.44	3843.00
401.91	3798.00
402.38	3820.00
402.84	3765.00
403.31	3849.00
403.78	3787.00
404.25	3912.00
404.71	3912.00
405.18	3846.00
405.65	3751.00
406.12	3858.00
406.58	3824.00
407.05	3900.00
407.52	3786.00
407.98	4154.00
408.45	3836.00
408.92	3736.00
409.38	3860.00
409.85	3794.00
410.32	3874.00
410.78	3790.00
411.25	3867.00
411.72	3822.00
412.18	3738.00
412.65	3854.00
413.12	3800.00
413.59	3862.00
414.05	3822.00
414.52	3936.00
414.98	3826.00
415.45	3908.00
415.92	3849.00
416.38	3796.00
416.85	3946.00
417.32	3817.00
417.78	3799.00
418.25	3812.00
418.72	3839.00
419.18	3874.00
419.65	3760.00
420.12	3873.00
420.58	3745.00
421.05	3792.00
421.51	3838.00
421.98	3819.00
422.45	3784.00
422.91	3838.00
423.38	3868.00
423.85	3844.00
424.31	3830.00
424.78	3902.00
425.24	3836.00
425.71	3896.00
426.18	3769.00
426.64	3879.00
427.11	3844.00
427.57	3882.00
428.04	3794.00
428.51	3852.00
428.97	3812.00
429.44	3830.00
429.90	3805.00
430.37	3946.00
430.83	3739.00
431.30	3794.00
431.77	3928.00
432.23	3900.00
432.70	3842.00
433.16	3788.00
433.63	3816.00
434.09	3810.00
434.56	3874.00
435.03	3800.00
435.49	3850.00
435.96	3871.00
436.42	3787.00
436.89	3857.00
437.35	3842.00
437.82	3882.00
438.28	3808.00
438.75	3849.00
439.21	4035.00
439.68	3840.00
440.14	3924.00
440.61	3896.00
441.07	3796.00
441.54	3832.00
442.00	3952.00
442.47	3834.00
442.94	3890.00
443.40	3852.00
443.87	3800.00
444.33	3972.00
444.80	3843.00
445.26	3830.00
445.73	3832.00
446.19	3848.00
446.65	3864.00
447.12	3864.00
447.58	3852.00
448.05	3814.00
448.51	3904.00
448.98	3858.00
449.44	3834.00
449.91	3857.00
450.37	3826.00
450.84	3839.00
451.30	3857.00
451.77	3897.00
452.23	3791.00
452.70	3936.00
453.16	3830.00
453.62	3874.00
454.09	3854.00
454.55	3870.00
455.02	3855.00
455.48	3839.00
455.95	3924.00
456.41	3824.00
456.88	3916.00
457.34	3824.00
457.80	3856.00
458.27	3812.00
458.73	3858.00
459.20	3864.00
459.66	3858.00
460.13	3789.00
460.59	3807.00
461.05	3873.00
461.52	3890.00
461.98	3752.00
462.45	3772.00
462.91	3845.00
463.37	3749.00
463.84	3838.00
464.30	3775.00
464.76	3726.00
465.23	3766.00
465.69	3807.00
466.16	3794.00
466.62	3793.00
467.08	3776.00
467.55	3740.00
468.01	3782.00
468.48	3759.00
468.94	3746.00
469.40	3682.00
469.87	3750.00
470.33	3726.00
470.79	3704.00
471.26	3731.00
471.72	3708.00
472.18	3739.00
472.65	3688.00
473.11	3780.00
473.57	3741.00
474.04	3698.00
474.50	3733.00
474.96	3656.00
475.43	3768.00
475.89	3696.00
476.35	3752.00
476.82	3718.00
477.28	3723.00
477.74	3787.00
478.21	3710.00
478.67	3757.00
479.13	3688.00
479.59	3816.00
480.06	3753.00
480.52	3731.00
480.98	3652.00
481.45	3708.00
481.91	3733.00
482.37	3663.00
482.84	3668.00
483.30	3622.00
483.76	3720.00
484.22	3796.00
484.69	3710.00
485.15	3682.00
485.61	3612.00
486.07	3650.00
486.54	3594.00
487.00	3704.00
487.46	3626.00
487.92	3640.00
488.39	3648.00
488.85	3731.00
489.31	3710.00
489.77	3743.00
490.24	3628.00
490.70	3713.00
491.16	3654.00
491.62	3718.00
492.09	3634.00
492.55	3765.00
493.01	3742.00
493.47	3700.00
493.94	3694.00
494.40	3739.00
494.86	3706.00
495.32	3668.00
495.78	3694.00
496.25	3724.00
496.71	3733.00
497.17	3823.00
497.63	3768.00
498.09	3747.00
498.56	3758.00
499.02	3704.00
499.48	3836.00
499.94	3775.00
500.40	3730.00
500.87	3754.00
501.33	3728.00
501.79	3772.00
502.25	3763.00
502.71	4094.00
503.17	3807.00
503.64	3796.00
504.10	3818.00
504.56	3823.00
505.02	3853.00
505.48	3798.00
505.94	3804.00
506.40	3908.00
506.87	3877.00
507.33	3902.00
507.79	3873.00
508.25	3867.00
508.71	3876.00
509.17	3881.00
509.63	3902.00
510.10	3962.00
510.56	3980.00
511.02	4051.00
511.48	4056.00
511.94	3980.00
512.40	3969.00
512.86	4078.00
513.32	4093.00
513.78	3974.00
514.25	4118.00
514.71	4902.00
515.17	4050.00
515.63	4200.00
516.09	4269.00
516.55	4158.00
517.01	4318.00
517.47	4251.00
517.93	4212.00
518.39	4458.00
518.85	4294.00
519.32	4330.00
519.78	4330.00
520.24	4365.00
520.70	4468.00
521.16	4505.00
521.62	4582.00
522.08	4545.00
522.54	4560.00
523.00	4700.00
523.46	4686.00
523.92	4688.00
524.38	4808.00
524.84	4780.00
525.30	4856.00
525.76	4787.00
526.22	4670.00
526.68	4728.00
527.14	4781.00
527.60	4849.00
528.06	4902.00
528.52	4966.00
528.98	4976.00
529.44	4924.00
529.90	5032.00
530.36	5085.00
530.82	5003.00
531.28	5146.00
531.74	5052.00
532.20	4950.00
532.66	4978.00
533.12	5064.00
533.58	5106.00
534.04	5039.00
534.50	5098.00
534.96	5094.00
535.42	5194.00
535.88	5142.00
536.34	5164.00
536.80	5110.00
537.26	5186.00
537.72	5200.00
538.18	5166.00
538.64	5240.00
539.10	5228.00
539.56	5440.00
540.02	5033.00
540.48	5204.00
540.94	5130.00
541.40	5129.00
541.86	5226.00
542.32	5222.00
542.78	5162.00
543.24	5330.00
543.69	5160.00
544.15	5340.00
544.61	5240.00
545.07	5242.00
545.53	5218.00
545.99	5304.00
546.45	5282.00
546.91	5290.00
547.37	5253.00
547.83	5266.00
548.29	5230.00
548.74	5232.00
549.20	5240.00
549.66	5420.00
550.12	5224.00
550.58	5212.00
551.04	5234.00
551.50	5279.00
551.96	5386.00
552.42	5276.00
552.87	5164.00
553.33	5334.00
553.79	5270.00
554.25	5232.00
554.71	5326.00
555.17	5295.00
555.63	5284.00
556.08	5246.00
556.54	5247.00
557.00	5131.00
557.46	5246.00
557.92	5278.00
558.38	5105.00
558.83	5122.00
559.29	5040.00
559.75	5078.00
560.21	5126.00
560.67	5208.00
561.13	5102.00
561.58	5091.00
562.04	5032.00
562.50	5072.00
562.96	5106.00
563.42	5096.00
563.87	5019.00
564.33	5026.00
564.79	5010.00
565.25	4934.00
565.71	4924.00
566.16	5006.00
566.62	4894.00
567.08	4911.00
567.54	4877.00
568.00	4906.00
568.45	4785.00
568.91	4804.00
569.37	4846.00
569.83	4838.00
570.28	4728.00
570.74	4767.00
571.20	4740.00
571.66	4692.00
572.11	4716.00
572.57	4740.00
573.03	4630.00
573.49	4680.00
573.94	4735.00
574.40	4732.00
574.86	4712.00
575.32	4568.00
575.77	4588.00
576.23	4540.00
576.69	4606.00
577.15	4524.00
577.60	4556.00
578.06	4468.00
578.52	4588.00
578.97	4544.00
579.43	4495.00
579.89	4514.00
580.34	4521.00
580.80	4476.00
581.26	4444.00
581.72	4500.00
582.17	4454.00
582.63	4422.00
583.09	4456.00
583.54	4400.00
584.00	4408.00
584.46	4458.00
584.91	4432.00
585.37	4509.00
585.83	4386.00
586.28	4314.00
586.74	4370.00
587.20	4356.00
587.65	4434.00
588.11	4306.00
588.57	4308.00
589.02	4224.00
589.48	4198.00
589.94	4316.00
590.39	4337.00
590.85	4285.00
591.30	4324.00
591.76	4394.00
592.22	4312.00
592.67	4260.00
593.13	4287.00
593.59	4306.00
594.04	4255.00
594.50	4248.00
594.95	4340.00
595.41	4238.00
595.87	4270.00
596.32	4298.00
596.78	4348.00
597.23	4332.00
597.69	4298.00
598.15	4232.00
598.60	4254.00
599.06	4354.00
599.51	4228.00
599.97	4253.00
600.43	4293.00
600.88	4258.00
601.34	4271.00
601.79	4168.00
602.25	4404.00
602.70	4184.00
603.16	4243.00
603.61	4176.00
604.07	4184.00
604.53	4287.00
604.98	4204.00
605.44	4256.00
605.89	4227.00
606.35	4140.00
606.80	4250.00
607.26	4132.00
607.71	4190.00
608.17	4220.00
608.62	4140.00
609.08	4308.00
609.53	4200.00
609.99	4124.00
610.44	4130.00
610.90	4101.00
611.35	4054.00
611.81	4210.00
612.26	4170.00
612.72	4104.00
613.17	4248.00
613.63	4060.00
614.08	4037.00
614.54	4026.00
614.99	4006.00
615.45	4042.00
615.90	4046.00
616.36	4006.00
616.81	4048.00
617.27	4043.00
617.72	4090.00
618.18	4019.00
618.63	4056.00
619.09	3997.00
619.54	4073.00
619.99	4003.00
620.45	4112.00
620.90	4080.00
621.36	4033.00
621.81	4102.00
622.27	4088.00
622.72	4090.00
623.18	3941.00
623.63	3960.00
624.08	4034.00
624.54	3928.00
624.99	3958.00
625.45	4032.00
625.90	3969.00
626.35	3994.00
626.81	4002.00
627.26	3940.00
627.72	4048.00
628.17	4025.00
628.62	3890.00
629.08	3990.00
629.53	3956.00
629.99	3930.00
630.44	3985.00
630.89	3980.00
631.35	3980.00
631.80	4010.00
632.26	4037.00
632.71	3942.00
633.16	3956.00
633.62	3962.00
634.07	3934.00
634.52	3930.00
634.98	3944.00
635.43	3952.00
635.88	3845.00
636.34	3981.00
636.79	3938.00
637.24	3903.00
637.70	4002.00
638.15	3969.00
638.60	3904.00
639.06	3892.00
639.51	3840.00
639.96	3819.00
640.42	3944.00
640.87	3916.00
641.32	3833.00
641.78	3846.00
642.23	3840.00
642.68	3808.00
643.14	3882.00
643.59	3858.00
644.04	3842.00
644.49	3774.00
644.95	3801.00
645.40	3774.00
645.85	3802.00
646.31	3832.00
646.76	3824.00
647.21	3836.00
647.66	3796.00
648.12	3792.00
648.57	3700.00
649.02	3844.00
649.47	3760.00
649.93	3986.00
650.38	3718.00
650.83	3721.00
651.28	3702.00
651.74	3788.00
652.19	3710.00
652.64	3800.00
653.09	3674.00
653.55	3729.00
654.00	3769.00
654.45	3807.00
654.90	3714.00
655.35	3668.00
655.81	3724.00
656.26	3652.00
656.71	3725.00
657.16	3763.00
657.62	3744.00
658.07	3676.00
658.52	3735.00
658.97	3670.00
659.42	3946.00
659.88	3692.00
660.33	3719.00
660.78	3692.00
661.23	3678.00
661.68	3692.00
662.13	3640.00
662.59	3600.00
663.04	3700.00
663.49	3666.00
663.94	3640.00
664.39	3648.00
664.84	3618.00
665.30	3634.00
665.75	3624.00
666.20	3638.00
666.65	3634.00
667.10	3791.00
667.55	3674.00
668.00	3578.00
668.46	3682.00
668.91	3592.00
669.36	3758.00
669.81	3560.00
670.26	3578.00
670.71	3668.00
671.16	3654.00
671.61	3745.00
672.06	3736.00
672.52	3604.00
672.97	3638.00
673.42	3710.00
673.87	3839.00
674.32	3600.00
674.77	3674.00
675.22	3555.00
675.67	3582.00
676.12	3649.00
676.57	3630.00
677.02	3628.00
677.47	3596.00
677.93	3718.00
678.38	3570.00
678.83	3624.00
679.28	3686.00
679.73	3590.00
680.18	3612.00
680.63	3614.00
681.08	3525.00
681.53	3558.00
681.98	3614.00
682.43	3614.00
682.88	3670.00
683.33	3670.00
683.78	3640.00
684.23	3740.00
684.68	3662.00
685.13	3690.00
685.58	3648.00
686.03	3656.00
686.48	3614.00
686.93	3668.00
687.38	3660.00
687.83	3664.00
688.28	3652.00
688.73	3868.00
689.18	3771.00
689.63	3674.00
690.08	3720.00
690.53	3788.00
690.98	3764.00
691.43	3854.00
691.88	3811.00
692.33	3908.00
692.78	3928.00
693.23	4046.00
693.68	4003.00
694.13	4009.00
694.58	4056.00
695.03	4334.00
695.48	4198.00
695.93	4204.00
696.38	4408.00
696.83	4337.00
697.28	4386.00
697.72	4499.00
698.17	4462.00
698.62	4573.00
699.07	4554.00
699.52	4542.00
699.97	4628.00
700.42	4779.00
700.87	4790.00
701.32	5096.00
701.77	4831.00
702.22	5051.00
702.67	5002.00
703.11	5070.00
703.56	5156.00
704.01	5226.00
704.46	5340.00
704.91	5474.00
705.36	5522.00
705.81	5522.00
706.26	5542.00
706.70	5660.00
707.15	5754.00
707.60	5785.00
708.05	5906.00
708.50	5946.00
708.95	5998.00
709.40	5994.00
709.84	6113.00
710.29	6152.00
710.74	6220.00
711.19	6293.00
711.64	6307.00
712.09	6406.00
712.53	6470.00
712.98	6654.00
713.43	6652.00
713.88	6697.00
714.33	6766.00
714.78	6676.00
715.22	6698.00
715.67	6822.00
716.12	6774.00
716.57	6588.00
717.02	6468.00
717.46	6449.00
717.91	6490.00
718.36	6534.00
718.81	6371.00
719.26	6442.00
719.70	6554.00
720.15	6610.00
720.60	6860.00
721.05	7212.00
721.49	7368.00
721.94	7450.00
722.39	7484.00
722.84	7402.00
723.28	7184.00
723.73	7276.00
724.18	7286.00
724.63	7510.00
725.07	7396.00
725.52	7560.00
725.97	7621.00
726.42	7788.00
726.86	7914.00
727.31	7762.00
727.76	7888.00
728.21	8006.00
728.65	7935.00
729.10	8173.00
729.55	8147.00
729.99	8330.00
730.44	8258.00
730.89	8504.00
731.33	8659.00
731.78	8680.00
732.23	8958.00
732.68	9007.00
733.12	9226.00
733.57	9438.00
734.02	9350.00
734.46	9572.00
734.91	9601.00
735.36	9680.00
735.80	9757.00
736.25	9822.00
736.70	9836.00
737.14	9916.00
737.59	10100.00
738.04	9980.00
738.48	10016.00
738.93	10089.00
739.37	10252.00
739.82	10245.00
740.27	10406.00
740.71	10332.00
741.16	10476.00
741.61	10405.00
742.05	10466.00
742.50	10488.00
742.94	10644.00
743.39	10468.00
743.84	10674.00
744.28	10634.00
744.73	10790.00
745.18	10838.00
745.62	10892.00
746.07	10934.00
746.51	10730.00
746.96	10916.00
747.40	10752.00
747.85	10908.00
748.30	10893.00
748.74	10790.00
749.19	10832.00
749.63	11024.00
750.08	11044.00
750.52	10881.00
750.97	10848.00
751.42	10814.00
751.86	10904.00
752.31	10958.00
752.75	10985.00
753.20	10846.00
753.64	10792.00
754.09	10912.00
754.53	10904.00
754.98	10846.00
755.42	10886.00
755.87	10875.00
756.31	10968.00
756.76	10913.00
757.20	10784.00
757.65	10734.00
758.09	10640.00
758.54	10272.00
758.98	9398.00
759.43	7864.00
759.87	6470.00
760.32	5700.00
760.76	5670.00
761.21	6338.00
761.65	7094.00
762.10	7284.00
762.54	6884.00
762.99	6872.00
763.43	6957.00
763.88	7160.00
764.32	7494.00
764.77	8050.00
765.21	8426.00
765.66	8850.00
766.10	9020.00
766.54	9375.00
766.99	9730.00
767.43	9942.00
767.88	10132.00
768.32	10286.00
768.77	10490.00
769.21	10647.00
769.66	10658.00
770.10	10670.00
770.54	10705.00
770.99	10778.00
771.43	10912.00
771.88	10862.00
772.32	10846.00
772.76	10698.00
773.21	10856.00
773.65	10722.00
774.10	10620.00
774.54	10664.00
774.98	10713.00
775.43	10840.00
775.87	10921.00
776.31	10883.00
776.76	10848.00
777.20	10808.00
777.65	10810.00
778.09	10800.00
778.53	10698.00
778.98	10671.00
779.42	10804.00
779.86	10722.00
780.31	10608.00
780.75	10682.00
781.19	10844.00
781.64	10750.00
782.08	10826.00
782.52	10794.00
782.97	10667.00
783.41	10676.00
783.85	10550.00
784.30	10527.00
784.74	10510.00
785.18	10508.00
785.63	10402.00
786.07	10500.00
786.51	10642.00
786.95	10568.00
787.40	10437.00
787.84	10378.00
788.28	10318.00
788.73	10334.00
789.17	10196.00
789.61	10132.00
790.05	10094.00
790.50	10016.00
790.94	10013.00
791.38	10066.00
791.82	10121.00
792.27	10190.00
792.71	10102.00
793.15	10314.00
793.59	10180.00
794.04	10044.00
794.48	10058.00
794.92	10047.00
795.36	9951.00
795.81	9884.00
796.25	9868.00
796.69	9899.00
797.13	9904.00
797.57	9938.00
798.02	10136.00
798.46	10070.00
798.90	10036.00
799.34	9880.00
799.79	9963.00
800.23	9822.00
800.67	9736.00
801.11	9686.00
801.55	9714.00
801.99	9568.00
802.44	9744.00
802.88	9772.00
803.32	9804.00
803.76	9922.00
804.20	9826.00
804.64	9772.00
805.09	9887.00
805.53	9907.00
805.97	9866.00
806.41	9728.00
806.85	9634.00
807.29	9518.00
807.74	9453.00
808.18	9374.00
808.62	9534.00
809.06	9444.00
809.50	9478.00
809.94	9502.00
810.38	9474.00
810.82	9670.00
811.27	9598.00
811.71	9316.00
812.15	9206.00
812.59	8928.00
813.03	8984.00
813.47	8750.00
813.91	8464.00
814.35	8425.00
814.79	8344.00
815.23	8228.00
815.67	8248.00
816.12	8282.00
816.56	8169.00
817.00	8340.00
817.44	8398.00
817.88	8371.00
818.32	8214.00
818.76	8244.00
819.20	8304.00
819.64	8346.00
820.08	8341.00
820.52	8546.00
820.96	8688.00
821.40	8488.00
821.84	8357.00
822.28	8008.00
822.72	7954.00
823.16	7994.00
823.60	8284.00
824.04	8616.00
824.48	8722.00
824.92	8738.00
825.36	8814.00
825.80	8642.00
826.24	8624.00
826.68	8406.00
827.12	8494.00
827.56	8412.00
828.00	8442.00
828.44	8440.00
828.88	8516.00
829.32	8594.00
829.76	8524.00
830.20	8782.00
830.64	8589.00
831.08	8740.00
831.52	8506.00
831.96	8444.00
832.40	8262.00
832.84	8390.00
833.28	8488.00
833.72	8612.00
834.16	8672.00
834.60	8893.00
835.04	8828.00
835.48	8942.00
835.91	8879.00
836.35	8958.00
836.79	8833.00
837.23	8952.00
837.67	8722.00
838.11	8800.00
838.55	8754.00
838.99	8808.00
839.43	8848.00
839.87	8974.00
840.30	8940.00
840.74	9062.00
841.18	9074.00
841.62	9144.00
842.06	9004.00
842.50	9086.00
842.94	8957.00
843.38	8914.00
843.81	8838.00
844.25	8727.00
844.69	8734.00
845.13	8676.00
845.57	8752.00
846.01	8808.00
846.45	8798.00
846.88	8838.00
847.32	8883.00
847.76	8964.00
848.20	8968.00
848.64	8888.00
849.08	8865.00
849.51	8922.00
849.95	8758.00
850.39	8826.00
850.83	8828.00
851.27	8674.00
851.70	8714.00
852.14	8637.00
852.58	8438.00
853.02	8339.00
853.46	8104.00
853.89	8128.00
854.33	8130.00
854.77	8406.00
855.21	8804.00
855.65	8966.00
856.08	9113.00
856.52	8996.00
856.96	8928.00
857.40	8852.00
857.83	8686.00
858.27	8688.00
858.71	8502.00
859.15	8450.00
859.58	8628.00
860.02	8562.00
860.46	8646.00
860.89	8751.00
861.33	8700.00
861.77	8904.00
862.21	9174.00
862.64	8938.00
863.08	8863.00
863.52	8956.00
863.95	8814.00
864.39	8659.00
864.83	8364.00
865.27	8102.00
865.70	8164.00
866.14	8012.00
866.58	8096.00
867.01	8346.00
867.45	8540.00
867.89	8618.00
868.32	8750.00
868.76	8830.00
869.20	8752.00
869.63	8986.00
870.07	8932.00
870.51	8596.00
870.94	8558.00
871.38	8450.00
871.82	8302.00
872.25	8276.00
872.69	8264.00
873.13	8320.00
873.56	8460.00
874.00	8478.00
874.43	8522.00
874.87	8520.00
875.31	8768.00
875.74	8618.00
876.18	8762.00
876.61	8710.00
877.05	8650.00
877.49	8524.00
877.92	8506.00
878.36	8396.00
878.79	8310.00
879.23	8300.00
879.67	8068.00
880.10	8042.00
880.54	8094.00
880.97	8145.00
881.41	8406.00
881.84	8424.00
882.28	8479.00
882.72	8618.00
883.15	8683.00
883.59	8704.00
884.02	8718.00
884.46	8598.00
884.89	8611.00
885.33	8432.00
885.76	8334.00
886.20	8178.00
886.63	8214.00
887.07	7972.00
887.50	8024.00
887.94	8076.00
888.37	8082.00
888.81	8380.00
889.24	8177.00
889.68	8387.00
890.11	8381.00
890.55	8442.00
890.98	8406.00
891.42	8414.00
891.85	8354.00
892.29	8345.00
892.72	8209.00
893.16	8032.00
893.59	7958.00
894.03	7804.00
894.46	7624.00
894.90	7442.00
895.33	7204.00
895.77	7256.00
896.20	7186.00
896.63	7162.00
897.07	7178.00
897.50	7166.00
897.94	7264.00
898.37	7492.00
898.81	6978.00
899.24	7112.00
899.68	7274.00
900.11	7328.00
900.54	7074.00
900.98	7112.00
901.41	7103.00
901.85	7170.00
902.28	7089.00
902.71	7142.00
903.15	7406.00
903.58	7394.00
904.02	7376.00
904.45	7381.00
904.88	7332.00
905.32	7340.00
905.75	7389.00
906.18	7142.00
906.62	7298.00
907.05	7120.00
907.48	7131.00
907.92	7101.00
908.35	7138.00
908.79	7010.00
909.22	6930.00
909.65	6986.00
910.09	7002.00
910.52	7002.00
910.95	6882.00
911.38	6786.00
911.82	6797.00
912.25	6798.00
912.68	6944.00
913.12	6817.00
913.55	6845.00
913.98	6996.00
914.42	7184.00
914.85	7224.00
915.28	7032.00
915.72	6978.00
916.15	6935.00
916.58	7026.00
917.01	6797.00
917.45	6748.00
917.88	6866.00
918.31	6928.00
918.74	7014.00
919.18	7118.00
919.61	7079.00
920.04	7200.00
920.47	7294.00
920.91	7272.00
921.34	7240.00
921.77	7292.00
922.20	7256.00
922.64	7370.00
923.07	7369.00
923.50	7305.00
923.93	7060.00
924.37	7134.00
924.80	7069.00
925.23	7048.00
925.66	6944.00
926.09	6589.00
926.53	6562.00
926.96	6372.00
927.39	6416.00
927.82	6026.00
928.25	5915.00
928.69	5920.00
929.12	5790.00
929.55	5692.00
929.98	5598.00
930.41	5438.00
930.84	5330.00
931.28	5058.00
931.71	5080.00
932.14	4835.00
932.57	4846.00
933.00	4646.00
933.43	4584.00
933.86	4514.00
934.30	4452.00
934.73	4617.00
935.16	4428.00
935.59	4432.00
936.02	4464.00
936.45	4498.00
936.88	4454.00
937.31	4638.00
937.75	4653.00
938.18	4748.00
938.61	4974.00
939.04	4819.00
939.47	4914.00
939.90	4840.00
940.33	4793.00
940.76	4556.00
941.19	4570.00
941.62	4486.00
942.05	4488.00
942.48	4388.00
942.91	4317.00
943.35	4394.00
943.78	4325.00
944.21	4352.00
944.64	4460.00
945.07	4468.00
945.50	4438.00
945.93	4476.00
946.36	4618.00
946.79	4544.00
947.22	4666.00
947.65	4628.00
948.08	4492.00
948.51	4614.00
948.94	4696.00
949.37	4678.00
949.80	4646.00
950.23	4609.00
950.66	4642.00
951.09	4652.00
951.52	4498.00
951.95	4608.00
952.38	4634.00
952.81	4846.00
953.24	4788.00
953.67	4769.00
954.10	4790.00
954.53	4864.00
954.96	4840.00
955.39	4978.00
955.82	4996.00
956.25	4986.00
956.68	5154.00
957.11	5042.00
957.53	4978.00
957.96	4995.00
958.39	4918.00
958.82	4844.00
959.25	4882.00
959.68	4928.00
960.11	5060.00
960.54	5078.00
960.97	5180.00
961.40	5298.00
961.83	5210.00
962.26	5206.00
962.68	5494.00
963.11	5410.00
963.54	5476.00
963.97	5464.00
964.40	5428.00
964.83	5612.00
965.26	5632.00
965.69	5580.00
966.11	5564.00
966.54	5504.00
966.97	5682.00
967.40	5796.00
967.83	5986.00
968.26	5734.00
968.69	5714.00
969.11	5746.00
969.54	5718.00
969.97	5742.00
970.40	5849.00
970.83	5761.00
971.26	5886.00
971.68	5794.00
972.11	5837.00
972.54	5780.00
972.97	5820.00
973.40	5835.00
973.82	5878.00
974.25	5825.00
974.68	5748.00
975.11	5814.00
975.54	5650.00
975.96	5662.00
976.39	5647.00
976.82	5728.00
977.25	5582.00
977.67	5632.00
978.10	5579.00
978.53	5662.00
978.96	5822.00
979.38	5813.00
979.81	5800.00
980.24	5988.00
980.67	6035.00
981.09	5994.00
981.52	6044.00
981.95	6056.00
982.38	6050.00
982.80	6122.00
983.23	6204.00
983.66	6198.00
984.08	6164.00
984.51	6035.00
984.94	6064.00
985.37	6110.00
985.79	5978.00
986.22	5950.00
986.65	5896.00
987.07	5870.00
987.50	5841.00
987.93	5832.00
988.35	5887.00
988.78	5849.00
989.21	5914.00
989.63	5968.00
990.06	6033.00
990.49	6010.00
990.91	6278.00
991.34	6090.00
991.77	6100.00
992.19	6130.00
992.62	6100.00
993.05	6055.00
993.47	6122.00
993.90	6152.00
994.32	6054.00
994.75	5978.00
995.18	5888.00
995.60	5846.00
996.03	5766.00
996.45	5916.00
996.88	5869.00
997.31	5752.00
997.73	5738.00
998.16	5771.00
998.58	5844.00
999.01	5800.00
999.44	5829.00
999.86	5950.00
1000.29	5904.00
1000.71	5922.00
1001.14	5952.00
1001.56	5928.00
1001.99	5950.00
1002.41	5872.00
1002.84	5793.00
1003.27	5668.00
1003.69	5750.00
1004.12	5744.00
1004.54	5694.00
1004.97	5606.00
1005.39	5440.00
1005.82	5567.00
1006.24	5502.00
1006.67	5504.00
1007.09	5470.00
1007.52	5472.00
1007.94	5460.00
1008.37	5722.00
1008.79	5580.00
1009.22	5548.00
1009.64	5516.00
1010.07	5579.00
1010.49	5584.00
1010.92	5546.00
1011.34	5583.00
1011.77	5610.00
1012.19	5564.00
1012.62	5582.00
1013.04	5507.00
1013.46	5549.00
1013.89	5378.00
1014.31	5400.00
1014.74	5334.00
1015.16	5285.00
1015.59	5260.00
1016.01	5297.00
1016.44	5256.00
1016.86	6268.00
1017.28	5234.00
1017.71	5288.00
1018.13	5490.00
1018.56	5399.00
1018.98	5448.00
1019.40	5394.00
1019.83	5454.00
1020.25	5426.00
1020.68	5462.00
1021.10	5592.00
1021.52	5515.00
1021.95	5746.00
1022.37	5530.00
1022.79	5476.00
1023.22	5532.00
1023.64	5466.00
1024.07	5480.00
1024.49	5450.00
1024.91	5325.00
1025.34	5359.00
1025.76	5454.00
1026.18	5370.00
1026.61	5326.00
1027.03	5293.00
1027.45	5305.00
1027.88	5236.00
1028.30	5438.00
1028.72	5310.00
1029.15	5306.00
1029.57	5363.00
1029.99	5394.00
1030.41	5329.00
1030.84	5428.00
1031.26	5346.00
1031.68	5326.00
1032.11	5396.00
1032.53	5284.00
1032.95	5212.00
1033.37	5244.00
1033.80	5262.00
1034.22	5168.00
1034.64	5264.00
1035.06	5047.00
1035.49	5048.00
1035.91	5070.00
1036.33	4948.00
1036.75	5008.00
1037.18	5025.00
1037.60	5028.00
1038.02	5039.00
1038.44	5078.00
1038.87	4948.00
1039.29	4982.00
1039.71	5039.00
1040.13	4964.00
1040.55	5117.00
1040.98	5038.00
1041.40	5041.00
1041.82	5044.00
1042.24	4940.00
1042.66	5019.00
1043.09	4852.00
1043.51	4835.00
1043.93	4840.00
1044.35	4790.00
1044.77	4855.00
1045.20	4845.00
1045.62	4724.00
1046.04	4756.00
1046.46	4781.00
1046.88	4644.00
1047.30	4746.00
1047.72	4742.00
1048.15	4726.00
1048.57	4654.00
1048.99	4712.00
1049.41	4710.00
1049.83	4714.00
1050.25	4722.00
1050.67	4704.00
1051.09	4624.00
1051.52	4690.00
1051.94	4606.00
1052.36	4676.00
1052.78	4588.00
1053.20	4642.00
1053.62	4564.00
1054.04	4562.00
1054.46	4588.00
1054.88	4684.00
1055.30	4618.00
1055.72	4592.00
1056.14	4526.00
1056.57	4642.00
1056.99	4418.00
1057.41	4448.00
1057.83	4460.00
1058.25	4404.00
1058.67	4402.00
1059.09	4398.00
1059.51	4380.00
1059.93	4354.00
1060.35	4307.00
1060.77	4412.00
1061.19	4408.00
1061.61	4366.00
1062.03	4276.00
1062.45	4274.00
1062.87	4404.00
1063.29	4350.00
1063.71	4301.00
1064.13	4286.00
1064.55	4275.00
1064.97	4342.00
1065.39	4322.00
1065.81	4214.00
1066.23	4262.00
1066.65	4254.00
1067.07	4307.00
1067.49	4232.00
1067.91	4208.00
1068.33	4142.00
1068.75	4251.00
1069.17	4243.00
1069.59	4227.00
1070.00	4150.00
1070.42	4160.00
1070.84	4122.00
1071.26	4100.00
1071.68	4074.00
1072.10	4162.00
1072.52	4168.00
1072.94	4058.00
1073.36	4057.00
1073.78	4096.00
1074.20	4081.00
1074.62	4096.00
1075.03	4048.00
1075.45	4121.00
1075.87	4085.00
1076.29	4066.00
1076.71	4086.00
1077.13	4138.00
1077.55	4040.00
1077.97	4046.00
1078.38	4065.00
1078.80	4038.00
1079.22	4063.00
1079.64	4032.00
1080.06	4002.00
1080.48	3986.00
1080.89	3953.00
1081.31	3974.00
1081.73	3916.00
1082.15	3948.00
1082.57	4063.00
1082.99	3944.00
1083.40	3960.00
1083.82	4010.00
1084.24	3898.00
1084.66	3932.00
1085.08	3962.00
1085.49	3832.00
1085.91	3922.00
1086.33	5400.00
1086.75	3962.00
1087.17	3900.00
1087.58	3910.00
1088.00	3924.00
1088.42	3958.00
1088.84	3904.00
1089.25	3828.00
1089.67	3888.00
1090.09	3846.00
1090.51	3812.00
1090.92	3888.00
1091.34	3805.00
1091.76	3820.00
1092.18	3818.00
1092.59	3801.00
1093.01	3816.00
1093.43	3768.00
1093.84	3816.00
1094.26	3788.00
1094.68	3808.00
1095.10	3747.00
1095.51	3812.00
1095.93	3740.00
1096.35	3781.00
1096.76	3788.00
1097.18	3808.00
1097.60	3750.00
1098.01	3755.00
1098.43	3742.00
1098.85	3739.00
1099.26	3672.00
1099.68	3725.00
1100.10	3614.00
1100.51	3696.00
1100.93	3672.00
1101.35	3692.00
1101.76	3757.00
1102.18	4244.00
1102.60	3735.00
1103.01	3618.00
1103.43	3696.00
1103.84	3676.00
1104.26	3630.00
1104.68	3656.00
1105.09	3595.00
1105.51	3654.00
1105.92	3682.00
1106.34	3606.00
1106.76	3666.00
1107.17	3642.00
1107.59	3644.00
1108.00	3534.00
1108.42	3619.00
1108.83	3566.00
1109.25	3592.00
1109.67	3529.00
1110.08	3522.00
1110.50	3514.00
1110.91	3574.00
1111.33	3520.00
1111.74	3532.00
1112.16	3609.00
1112.57	3604.00
1112.99	3473.00
1113.41	3568.00
1113.82	3509.00
1114.24	3583.00
1114.65	3541.00
1115.07	3444.00
1115.48	3318.00
1115.90	2193.00
1116.31	2222.00
1116.73	2223.00
1117.14	2221.00
>>>>>End Processed Spectral Data<<<<<
