SpectraSuite Data File
++++++++++++++++++++++++++++++++++++
Date: Tue May 29 13:19:49 EEST 2018
User: CanSEE
Dark Spectrum Present: No
Reference Spectrum Present: No
Number of Sampled Component Spectra: 1
Spectrometers: MAYP11278
Integration Time (usec): 220000 (MAYP11278)
Spectra Averaged: 1 (MAYP11278)
Boxcar Smoothing: 0 (MAYP11278)
Correct for Electrical Dark: No (MAYP11278)
Strobe/Lamp Enabled: No (MAYP11278)
Correct for Detector Non-linearity: No (MAYP11278)
Correct for Stray Light: No (MAYP11278)
Number of Pixels in Processed Spectrum: 2068
>>>>>Begin Processed Spectral Data<<<<<
187.82	2352.00
188.30	2248.00
188.78	2221.00
189.26	2216.00
189.73	3444.00
190.21	3542.00
190.69	3694.00
191.17	3680.00
191.64	3761.00
192.12	3708.00
192.60	3710.00
193.07	3674.00
193.55	3713.00
194.03	3682.00
194.51	3700.00
194.98	3723.00
195.46	3764.00
195.94	3684.00
196.42	3715.00
196.89	3807.00
197.37	3734.00
197.85	3702.00
198.32	3680.00
198.80	3718.00
199.28	3734.00
199.76	3761.00
200.23	3668.00
200.71	3708.00
201.19	3738.00
201.66	3769.00
202.14	3731.00
202.62	3646.00
203.09	3774.00
203.57	3626.00
204.05	3730.00
204.53	3761.00
205.00	3694.00
205.48	3692.00
205.96	3739.00
206.43	3720.00
206.91	3746.00
207.39	3881.00
207.86	3686.00
208.34	3738.00
208.82	3714.00
209.29	3734.00
209.77	3731.00
210.25	3718.00
210.72	3698.00
211.20	3738.00
211.68	3676.00
212.15	3656.00
212.63	3835.00
213.11	3763.00
213.58	3696.00
214.06	3827.00
214.53	3755.00
215.01	3763.00
215.49	3742.00
215.96	3749.00
216.44	3751.00
216.92	3726.00
217.39	3678.00
217.87	3734.00
218.35	3756.00
218.82	3690.00
219.30	3710.00
219.77	3678.00
220.25	3704.00
220.73	3824.00
221.20	3672.00
221.68	3754.00
222.15	3714.00
222.63	3772.00
223.11	3696.00
223.58	3776.00
224.06	3753.00
224.53	3722.00
225.01	3692.00
225.49	3727.00
225.96	3734.00
226.44	3748.00
226.91	3766.00
227.39	3717.00
227.87	3768.00
228.34	3784.00
228.82	3801.00
229.29	3692.00
229.77	3736.00
230.24	3757.00
230.72	3751.00
231.20	3798.00
231.67	3706.00
232.15	3737.00
232.62	3642.00
233.10	3722.00
233.57	3756.00
234.05	3926.00
234.53	3757.00
235.00	3700.00
235.48	3713.00
235.95	3739.00
236.43	3789.00
236.90	3798.00
237.38	3698.00
237.85	3740.00
238.33	3766.00
238.80	3759.00
239.28	3700.00
239.75	3688.00
240.23	3769.00
240.71	3796.00
241.18	3729.00
241.66	3686.00
242.13	3758.00
242.61	3789.00
243.08	3646.00
243.56	3730.00
244.03	3752.00
244.51	3814.00
244.98	3700.00
245.46	3814.00
245.93	5666.00
246.41	3660.00
246.88	3775.00
247.36	3713.00
247.83	3722.00
248.31	3765.00
248.78	3704.00
249.26	3766.00
249.73	3784.00
250.21	3756.00
250.68	3837.00
251.16	3758.00
251.63	3852.00
252.10	3801.00
252.58	3714.00
253.05	3812.00
253.53	3733.00
254.00	3728.00
254.48	3765.00
254.95	3764.00
255.43	3795.00
255.90	3767.00
256.38	3793.00
256.85	3778.00
257.33	3772.00
257.80	3928.00
258.27	3772.00
258.75	3742.00
259.22	3704.00
259.70	3768.00
260.17	3826.00
260.65	3752.00
261.12	3744.00
261.59	3838.00
262.07	3711.00
262.54	3814.00
263.02	3750.00
263.49	3713.00
263.97	3780.00
264.44	3809.00
264.91	3717.00
265.39	3749.00
265.86	3762.00
266.34	3808.00
266.81	3712.00
267.28	3774.00
267.76	3760.00
268.23	3773.00
268.71	3664.00
269.18	3704.00
269.65	3737.00
270.13	3747.00
270.60	3802.00
271.08	3745.00
271.55	3778.00
272.02	3700.00
272.50	3771.00
272.97	3678.00
273.44	3771.00
273.92	3846.00
274.39	3763.00
274.87	3761.00
275.34	3746.00
275.81	3710.00
276.29	3746.00
276.76	3770.00
277.23	3632.00
277.71	3700.00
278.18	3640.00
278.65	3858.00
279.13	3712.00
279.60	3716.00
280.07	4038.00
280.55	3973.00
281.02	4052.00
281.50	3813.00
281.97	3905.00
282.44	3761.00
282.91	3754.00
283.39	3780.00
283.86	3730.00
284.33	3762.00
284.81	3843.00
285.28	3803.00
285.75	3806.00
286.23	3807.00
286.70	3735.00
287.17	3806.00
287.65	3850.00
288.12	3778.00
288.59	3763.00
289.07	3713.00
289.54	3850.00
290.01	3724.00
290.48	3810.00
290.96	3738.00
291.43	3779.00
291.90	3902.00
292.38	3762.00
292.85	3786.00
293.32	3769.00
293.79	3838.00
294.27	3814.00
294.74	3781.00
295.21	3827.00
295.69	3782.00
296.16	3875.00
296.63	3853.00
297.10	3869.00
297.58	3789.00
298.05	3853.00
298.52	3820.00
298.99	3867.00
299.47	3766.00
299.94	3800.00
300.41	3749.00
300.88	3816.00
301.36	3832.00
301.83	3792.00
302.30	3704.00
302.77	3850.00
303.25	3829.00
303.72	3745.00
304.19	3758.00
304.66	3736.00
305.13	3788.00
305.61	3795.00
306.08	3773.00
306.55	3812.00
307.02	3745.00
307.49	3756.00
307.97	3765.00
308.44	3805.00
308.91	3805.00
309.38	3822.00
309.86	3816.00
310.33	3798.00
310.80	3775.00
311.27	3750.00
311.74	3856.00
312.21	3787.00
312.69	3884.00
313.16	3754.00
313.63	3722.00
314.10	3780.00
314.57	3770.00
315.05	3739.00
315.52	3840.00
315.99	3834.00
316.46	3761.00
316.93	3784.00
317.40	3788.00
317.88	3934.00
318.35	3730.00
318.82	3809.00
319.29	3682.00
319.76	3820.00
320.23	3914.00
320.70	3844.00
321.18	3774.00
321.65	3700.00
322.12	3740.00
322.59	3868.00
323.06	3755.00
323.53	3920.00
324.00	3713.00
324.48	3837.00
324.95	3748.00
325.42	3758.00
325.89	3794.00
326.36	3794.00
326.83	3822.00
327.30	3803.00
327.77	3822.00
328.24	3815.00
328.72	3796.00
329.19	3748.00
329.66	3756.00
330.13	3787.00
330.60	3884.00
331.07	3814.00
331.54	3886.00
332.01	3789.00
332.48	3944.00
332.95	3856.00
333.43	3858.00
333.90	3838.00
334.37	3841.00
334.84	3821.00
335.31	4009.00
335.78	3782.00
336.25	3819.00
336.72	3787.00
337.19	3798.00
337.66	3792.00
338.13	3791.00
338.60	3912.00
339.07	3806.00
339.54	3765.00
340.01	3712.00
340.49	3711.00
340.96	3832.00
341.43	3842.00
341.90	3737.00
342.37	3791.00
342.84	3868.00
343.31	3793.00
343.78	3714.00
344.25	3760.00
344.72	3739.00
345.19	3745.00
345.66	3793.00
346.13	3748.00
346.60	3754.00
347.07	3916.00
347.54	3760.00
348.01	3858.00
348.48	3772.00
348.95	3754.00
349.42	3816.00
349.89	3806.00
350.36	3763.00
350.83	3718.00
351.30	3848.00
351.77	3888.00
352.24	3850.00
352.71	3806.00
353.18	3803.00
353.65	3846.00
354.12	3818.00
354.59	3802.00
355.06	3807.00
355.53	3902.00
356.00	3753.00
356.47	3889.00
356.94	3788.00
357.41	3926.00
357.88	3807.00
358.35	3773.00
358.82	3771.00
359.28	3732.00
359.75	3776.00
360.22	3828.00
360.69	3878.00
361.16	3779.00
361.63	3727.00
362.10	3816.00
362.57	3812.00
363.04	3816.00
363.51	3944.00
363.98	3816.00
364.45	3773.00
364.92	3812.00
365.39	3780.00
365.86	3768.00
366.32	3810.00
366.79	3837.00
367.26	4878.00
367.73	4172.00
368.20	3751.00
368.67	3812.00
369.14	3746.00
369.61	3825.00
370.08	3828.00
370.55	3778.00
371.02	4564.00
371.48	3812.00
371.95	3751.00
372.42	3713.00
372.89	3791.00
373.36	3787.00
373.83	3743.00
374.30	3748.00
374.77	3833.00
375.23	3723.00
375.70	3885.00
376.17	3778.00
376.64	3762.00
377.11	3716.00
377.58	3775.00
378.05	3804.00
378.51	3782.00
378.98	3808.00
379.45	3820.00
379.92	3836.00
380.39	3977.00
380.86	3777.00
381.33	3854.00
381.79	3856.00
382.26	3747.00
382.73	3829.00
383.20	3834.00
383.67	3880.00
384.14	3814.00
384.60	4062.00
385.07	3798.00
385.54	3800.00
386.01	3824.00
386.48	3930.00
386.94	3789.00
387.41	3759.00
387.88	3841.00
388.35	3811.00
388.82	3857.00
389.28	3750.00
389.75	3830.00
390.22	3807.00
390.69	3837.00
391.16	3802.00
391.62	3797.00
392.09	3798.00
392.56	3804.00
393.03	3816.00
393.50	3930.00
393.96	3807.00
394.43	3863.00
394.90	3798.00
395.37	3865.00
395.83	4057.00
396.30	3731.00
396.77	3837.00
397.24	3907.00
397.70	3781.00
398.17	3814.00
398.64	3872.00
399.11	3816.00
399.57	3882.00
400.04	3763.00
400.51	3855.00
400.98	3802.00
401.44	3873.00
401.91	3832.00
402.38	3862.00
402.84	3784.00
403.31	3866.00
403.78	3788.00
404.25	3920.00
404.71	3920.00
405.18	3898.00
405.65	3773.00
406.12	3916.00
406.58	3824.00
407.05	3964.00
407.52	3858.00
407.98	4128.00
408.45	3824.00
408.92	3729.00
409.38	3922.00
409.85	3772.00
410.32	3824.00
410.78	3777.00
411.25	3884.00
411.72	3841.00
412.18	3750.00
412.65	3867.00
413.12	3871.00
413.59	3843.00
414.05	3872.00
414.52	3892.00
414.98	3805.00
415.45	3930.00
415.92	3867.00
416.38	3850.00
416.85	3940.00
417.32	3860.00
417.78	3860.00
418.25	3866.00
418.72	3859.00
419.18	3871.00
419.65	3824.00
420.12	3886.00
420.58	3782.00
421.05	3811.00
421.51	3828.00
421.98	3851.00
422.45	3788.00
422.91	3828.00
423.38	3834.00
423.85	3868.00
424.31	3838.00
424.78	3905.00
425.24	3816.00
425.71	3892.00
426.18	3784.00
426.64	3878.00
427.11	3851.00
427.57	3900.00
428.04	3806.00
428.51	3862.00
428.97	3834.00
429.44	3872.00
429.90	3850.00
430.37	4004.00
430.83	3783.00
431.30	3841.00
431.77	3964.00
432.23	3932.00
432.70	3830.00
433.16	3816.00
433.63	3848.00
434.09	3814.00
434.56	3900.00
435.03	3814.00
435.49	3887.00
435.96	3867.00
436.42	3810.00
436.89	3904.00
437.35	3881.00
437.82	3896.00
438.28	3879.00
438.75	3876.00
439.21	4084.00
439.68	3884.00
440.14	3932.00
440.61	3981.00
441.07	3848.00
441.54	3844.00
442.00	4029.00
442.47	3782.00
442.94	3924.00
443.40	3896.00
443.87	3849.00
444.33	3980.00
444.80	3887.00
445.26	3896.00
445.73	3872.00
446.19	3936.00
446.65	3874.00
447.12	3908.00
447.58	3844.00
448.05	3856.00
448.51	3918.00
448.98	3916.00
449.44	3912.00
449.91	3836.00
450.37	3865.00
450.84	3922.00
451.30	3896.00
451.77	3985.00
452.23	3838.00
452.70	3934.00
453.16	3906.00
453.62	3863.00
454.09	3900.00
454.55	3928.00
455.02	3883.00
455.48	3962.00
455.95	3926.00
456.41	3916.00
456.88	3938.00
457.34	3880.00
457.80	3852.00
458.27	3810.00
458.73	3894.00
459.20	3918.00
459.66	3946.00
460.13	3823.00
460.59	3794.00
461.05	3896.00
461.52	3911.00
461.98	3830.00
462.45	3800.00
462.91	3888.00
463.37	3812.00
463.84	3836.00
464.30	3850.00
464.76	3795.00
465.23	3824.00
465.69	3838.00
466.16	3848.00
466.62	3846.00
467.08	3850.00
467.55	3792.00
468.01	3809.00
468.48	3810.00
468.94	3810.00
469.40	3742.00
469.87	3794.00
470.33	3777.00
470.79	3800.00
471.26	3732.00
471.72	3765.00
472.18	3711.00
472.65	3772.00
473.11	3858.00
473.57	3801.00
474.04	3731.00
474.50	3770.00
474.96	3690.00
475.43	3786.00
475.89	3778.00
476.35	3780.00
476.82	3821.00
477.28	3784.00
477.74	3812.00
478.21	3772.00
478.67	3794.00
479.13	3753.00
479.59	3862.00
480.06	3822.00
480.52	3804.00
480.98	3723.00
481.45	3758.00
481.91	3740.00
482.37	3696.00
482.84	3764.00
483.30	3678.00
483.76	3714.00
484.22	3818.00
484.69	3736.00
485.15	3746.00
485.61	3604.00
486.07	3748.00
486.54	3656.00
487.00	3814.00
487.46	3702.00
487.92	3696.00
488.39	3704.00
488.85	3749.00
489.31	3774.00
489.77	3819.00
490.24	3706.00
490.70	3739.00
491.16	3714.00
491.62	3716.00
492.09	3684.00
492.55	3860.00
493.01	3821.00
493.47	3784.00
493.94	3733.00
494.40	3779.00
494.86	3801.00
495.32	3776.00
495.78	3797.00
496.25	3764.00
496.71	3802.00
497.17	3918.00
497.63	3849.00
498.09	3764.00
498.56	3828.00
499.02	3832.00
499.48	3948.00
499.94	3846.00
500.40	3824.00
500.87	3886.00
501.33	3804.00
501.79	3926.00
502.25	3872.00
502.71	4262.00
503.17	3912.00
503.64	3934.00
504.10	3914.00
504.56	3987.00
505.02	4022.00
505.48	3956.00
505.94	3982.00
506.40	4072.00
506.87	3986.00
507.33	4092.00
507.79	4072.00
508.25	4052.00
508.71	4084.00
509.17	4097.00
509.63	4156.00
510.10	4192.00
510.56	4178.00
511.02	4308.00
511.48	4382.00
511.94	4250.00
512.40	4254.00
512.86	4272.00
513.32	4368.00
513.78	4282.00
514.25	4490.00
514.71	5238.00
515.17	4410.00
515.63	4574.00
516.09	4574.00
516.55	4572.00
517.01	4670.00
517.47	4682.00
517.93	4606.00
518.39	4932.00
518.85	4828.00
519.32	4820.00
519.78	4899.00
520.24	4905.00
520.70	5110.00
521.16	5156.00
521.62	5250.00
522.08	5222.00
522.54	5282.00
523.00	5318.00
523.46	5492.00
523.92	5484.00
524.38	5686.00
524.84	5549.00
525.30	5684.00
525.76	5660.00
526.22	5579.00
526.68	5554.00
527.14	5638.00
527.60	5792.00
528.06	5928.00
528.52	6008.00
528.98	6024.00
529.44	5957.00
529.90	6064.00
530.36	6194.00
530.82	6232.00
531.28	6314.00
531.74	6166.00
532.20	6178.00
532.66	6141.00
533.12	6238.00
533.58	6300.00
534.04	6234.00
534.50	6426.00
534.96	6456.00
535.42	6545.00
535.88	6530.00
536.34	6455.00
536.80	6412.00
537.26	6526.00
537.72	6518.00
538.18	6618.00
538.64	6690.00
539.10	6607.00
539.56	6750.00
540.02	6440.00
540.48	6551.00
540.94	6520.00
541.40	6526.00
541.86	6600.00
542.32	6730.00
542.78	6592.00
543.24	6826.00
543.69	6691.00
544.15	6843.00
544.61	6719.00
545.07	6726.00
545.53	6772.00
545.99	6756.00
546.45	6806.00
546.91	6742.00
547.37	6707.00
547.83	6801.00
548.29	6829.00
548.74	6852.00
549.20	6875.00
549.66	6962.00
550.12	6844.00
550.58	6831.00
551.04	6866.00
551.50	6964.00
551.96	7052.00
552.42	6892.00
552.87	6798.00
553.33	6958.00
553.79	6896.00
554.25	6874.00
554.71	6945.00
555.17	6864.00
555.63	6992.00
556.08	6834.00
556.54	6920.00
557.00	6738.00
557.46	6730.00
557.92	6968.00
558.38	6664.00
558.83	6700.00
559.29	6642.00
559.75	6596.00
560.21	6694.00
560.67	6764.00
561.13	6610.00
561.58	6598.00
562.04	6604.00
562.50	6512.00
562.96	6616.00
563.42	6626.00
563.87	6494.00
564.33	6520.00
564.79	6512.00
565.25	6300.00
565.71	6363.00
566.16	6334.00
566.62	6240.00
567.08	6363.00
567.54	6244.00
568.00	6226.00
568.45	6072.00
568.91	6148.00
569.37	6145.00
569.83	6066.00
570.28	5928.00
570.74	5946.00
571.20	5918.00
571.66	5934.00
572.11	5872.00
572.57	5920.00
573.03	5828.00
573.49	5815.00
573.94	5790.00
574.40	5858.00
574.86	5734.00
575.32	5664.00
575.77	5576.00
576.23	5560.00
576.69	5664.00
577.15	5573.00
577.60	5525.00
578.06	5464.00
578.52	5564.00
578.97	5524.00
579.43	5418.00
579.89	5443.00
580.34	5484.00
580.80	5446.00
581.26	5458.00
581.72	5406.00
582.17	5392.00
582.63	5342.00
583.09	5348.00
583.54	5409.00
584.00	5418.00
584.46	5344.00
584.91	5300.00
585.37	5406.00
585.83	5248.00
586.28	5200.00
586.74	5192.00
587.20	5226.00
587.65	5208.00
588.11	5045.00
588.57	5108.00
589.02	4992.00
589.48	4966.00
589.94	5025.00
590.39	5116.00
590.85	5084.00
591.30	5072.00
591.76	5178.00
592.22	5066.00
592.67	5162.00
593.13	5012.00
593.59	5168.00
594.04	5028.00
594.50	5008.00
594.95	5172.00
595.41	5060.00
595.87	4984.00
596.32	5160.00
596.78	5057.00
597.23	5126.00
597.69	5066.00
598.15	5025.00
598.60	5006.00
599.06	5106.00
599.51	5042.00
599.97	5019.00
600.43	5063.00
600.88	5046.00
601.34	4976.00
601.79	4941.00
602.25	5152.00
602.70	4970.00
603.16	5026.00
603.61	4926.00
604.07	4986.00
604.53	5038.00
604.98	4999.00
605.44	5007.00
605.89	4958.00
606.35	4846.00
606.80	4950.00
607.26	4914.00
607.71	4927.00
608.17	4886.00
608.62	4896.00
609.08	4978.00
609.53	4886.00
609.99	4790.00
610.44	4824.00
610.90	4810.00
611.35	4760.00
611.81	4863.00
612.26	4810.00
612.72	4746.00
613.17	4912.00
613.63	4636.00
614.08	4662.00
614.54	4724.00
614.99	4650.00
615.45	4652.00
615.90	4631.00
616.36	4609.00
616.81	4552.00
617.27	4614.00
617.72	4690.00
618.18	4624.00
618.63	4598.00
619.09	4578.00
619.54	4664.00
619.99	4604.00
620.45	4666.00
620.90	4640.00
621.36	4580.00
621.81	4660.00
622.27	4646.00
622.72	4654.00
623.18	4546.00
623.63	4498.00
624.08	4620.00
624.54	4456.00
624.99	4506.00
625.45	4580.00
625.90	4472.00
626.35	4526.00
626.81	4554.00
627.26	4468.00
627.72	4518.00
628.17	4559.00
628.62	4448.00
629.08	4520.00
629.53	4491.00
629.99	4432.00
630.44	4564.00
630.89	4515.00
631.35	4566.00
631.80	4527.00
632.26	4606.00
632.71	4482.00
633.16	4549.00
633.62	4386.00
634.07	4476.00
634.52	4494.00
634.98	4502.00
635.43	4490.00
635.88	4404.00
636.34	4490.00
636.79	4452.00
637.24	4454.00
637.70	4448.00
638.15	4531.00
638.60	4394.00
639.06	4422.00
639.51	4340.00
639.96	4326.00
640.42	4364.00
640.87	4400.00
641.32	4236.00
641.78	4287.00
642.23	4297.00
642.68	4225.00
643.14	4204.00
643.59	4304.00
644.04	4218.00
644.49	4186.00
644.95	4190.00
645.40	4144.00
645.85	4164.00
646.31	4146.00
646.76	4192.00
647.21	4156.00
647.66	4166.00
648.12	4160.00
648.57	4058.00
649.02	4152.00
649.47	4076.00
649.93	4322.00
650.38	4070.00
650.83	4036.00
651.28	4074.00
651.74	4068.00
652.19	4052.00
652.64	4094.00
653.09	4038.00
653.55	4020.00
654.00	4070.00
654.45	4077.00
654.90	4026.00
655.35	3974.00
655.81	4024.00
656.26	3894.00
656.71	3946.00
657.16	4013.00
657.62	4032.00
658.07	3920.00
658.52	3985.00
658.97	3942.00
659.42	4198.00
659.88	3907.00
660.33	4038.00
660.78	3954.00
661.23	3936.00
661.68	3948.00
662.13	3886.00
662.59	3846.00
663.04	3926.00
663.49	3848.00
663.94	3864.00
664.39	3904.00
664.84	3820.00
665.30	3878.00
665.75	3826.00
666.20	3906.00
666.65	3852.00
667.10	3964.00
667.55	3904.00
668.00	3788.00
668.46	3862.00
668.91	3832.00
669.36	3944.00
669.81	3748.00
670.26	3792.00
670.71	3868.00
671.16	3817.00
671.61	3908.00
672.06	3914.00
672.52	3802.00
672.97	3816.00
673.42	3862.00
673.87	3960.00
674.32	3794.00
674.77	3856.00
675.22	3702.00
675.67	3771.00
676.12	3854.00
676.57	3800.00
677.02	3814.00
677.47	3804.00
677.93	3950.00
678.38	3765.00
678.83	3766.00
679.28	3828.00
679.73	3775.00
680.18	3802.00
680.63	3802.00
681.08	3755.00
681.53	3750.00
681.98	3868.00
682.43	3822.00
682.88	3874.00
683.33	3886.00
683.78	3855.00
684.23	3973.00
684.68	3890.00
685.13	3873.00
685.58	3922.00
686.03	3885.00
686.48	3856.00
686.93	3884.00
687.38	3860.00
687.83	3954.00
688.28	4005.00
688.73	4164.00
689.18	4104.00
689.63	4021.00
690.08	4118.00
690.53	4188.00
690.98	4190.00
691.43	4326.00
691.88	4388.00
692.33	4395.00
692.78	4578.00
693.23	4686.00
693.68	4748.00
694.13	4786.00
694.58	4854.00
695.03	5268.00
695.48	5164.00
695.93	5328.00
696.38	5580.00
696.83	5619.00
697.28	5667.00
697.72	5848.00
698.17	5950.00
698.62	6119.00
699.07	6306.00
699.52	6365.00
699.97	6574.00
700.42	6734.00
700.87	7016.00
701.32	7266.00
701.77	7176.00
702.22	7524.00
702.67	7552.00
703.11	7820.00
703.56	8003.00
704.01	8184.00
704.46	8424.00
704.91	8776.00
705.36	8916.00
705.81	9099.00
706.26	9072.00
706.70	9400.00
707.15	9574.00
707.60	9788.00
708.05	9938.00
708.50	10262.00
708.95	10354.00
709.40	10592.00
709.84	10640.00
710.29	10952.00
710.74	11098.00
711.19	11290.00
711.64	11540.00
712.09	11750.00
712.53	11898.00
712.98	12241.00
713.43	12261.00
713.88	12612.00
714.33	12600.00
714.78	12690.00
715.22	12838.00
715.67	12990.00
716.12	12844.00
716.57	12586.00
717.02	12232.00
717.46	12209.00
717.91	12223.00
718.36	12074.00
718.81	12088.00
719.26	12163.00
719.70	12501.00
720.15	12784.00
720.60	13275.00
721.05	14290.00
721.49	14854.00
721.94	15190.00
722.39	15196.00
722.84	15030.00
723.28	14626.00
723.73	14749.00
724.18	14652.00
724.63	14977.00
725.07	15100.00
725.52	15533.00
725.97	15849.00
726.42	16014.00
726.86	16340.00
727.31	16184.00
727.76	16340.00
728.21	16722.00
728.65	16786.00
729.10	17068.00
729.55	17199.00
729.99	17665.00
730.44	17988.00
730.89	18232.00
731.33	18582.00
731.78	19104.00
732.23	19653.00
732.68	19908.00
733.12	20222.00
733.57	20773.00
734.02	21222.00
734.46	21350.00
734.91	21562.00
735.36	21526.00
735.80	21898.00
736.25	21868.00
736.70	22374.00
737.14	22560.00
737.59	22657.00
738.04	22701.00
738.48	22630.00
738.93	22828.00
739.37	23144.00
739.82	23554.00
740.27	23673.00
740.71	23707.00
741.16	23616.00
741.61	23890.00
742.05	24056.00
742.50	24203.00
742.94	24302.00
743.39	24596.00
743.84	24544.00
744.28	24798.00
744.73	24772.00
745.18	25020.00
745.62	25302.00
746.07	25515.00
746.51	25180.00
746.96	25548.00
747.40	25136.00
747.85	25356.00
748.30	25380.00
748.74	25456.00
749.19	25230.00
749.63	25480.00
750.08	25549.00
750.52	25524.00
750.97	25432.00
751.42	25410.00
751.86	25565.00
752.31	25570.00
752.75	25549.00
753.20	25444.00
753.64	25578.00
754.09	25642.00
754.53	25714.00
754.98	25856.00
755.42	25512.00
755.87	25692.00
756.31	25499.00
756.76	25353.00
757.20	25250.00
757.65	25136.00
758.09	24702.00
758.54	23950.00
758.98	21130.00
759.43	17115.00
759.87	12716.00
760.32	10304.00
760.76	10318.00
761.21	12350.00
761.65	14578.00
762.10	15078.00
762.54	14252.00
762.99	13758.00
763.43	14028.00
763.88	15036.00
764.32	15944.00
764.77	17262.00
765.21	18542.00
765.66	19504.00
766.10	20572.00
766.54	21212.00
766.99	22388.00
767.43	23094.00
767.88	23762.00
768.32	23978.00
768.77	24446.00
769.21	24726.00
769.66	24852.00
770.10	25354.00
770.54	25362.00
770.99	25472.00
771.43	25320.00
771.88	25417.00
772.32	25398.00
772.76	25358.00
773.21	25362.00
773.65	25444.00
774.10	25150.00
774.54	25052.00
774.98	25005.00
775.43	25410.00
775.87	25596.00
776.31	25734.00
776.76	25630.00
777.20	25569.00
777.65	25468.00
778.09	25398.00
778.53	25212.00
778.98	25154.00
779.42	25178.00
779.86	25134.00
780.31	25070.00
780.75	25162.00
781.19	25288.00
781.64	25248.00
782.08	25194.00
782.52	25272.00
782.97	25076.00
783.41	24952.00
783.85	24876.00
784.30	24799.00
784.74	24464.00
785.18	24476.00
785.63	24598.00
786.07	24684.00
786.51	24592.00
786.95	24728.00
787.40	24442.00
787.84	24542.00
788.28	24280.00
788.73	24197.00
789.17	23870.00
789.61	23678.00
790.05	23712.00
790.50	23434.00
790.94	23297.00
791.38	23478.00
791.82	23462.00
792.27	23572.00
792.71	23571.00
793.15	23858.00
793.59	23689.00
794.04	23434.00
794.48	23398.00
794.92	23144.00
795.36	22966.00
795.81	22734.00
796.25	22618.00
796.69	22732.00
797.13	23052.00
797.57	23160.00
798.02	23505.00
798.46	23575.00
798.90	23432.00
799.34	23162.00
799.79	23069.00
800.23	22618.00
800.67	22624.00
801.11	22536.00
801.55	22358.00
801.99	22223.00
802.44	22364.00
802.88	22564.00
803.32	22610.00
803.76	22689.00
804.20	22892.00
804.64	22796.00
805.09	22846.00
805.53	22971.00
805.97	22726.00
806.41	22223.00
806.85	22156.00
807.29	21940.00
807.74	21848.00
808.18	21876.00
808.62	21742.00
809.06	21738.00
809.50	21850.00
809.94	21812.00
810.38	22032.00
810.82	21944.00
811.27	21844.00
811.71	21280.00
812.15	21064.00
812.59	20491.00
813.03	20080.00
813.47	19536.00
813.91	19092.00
814.35	18838.00
814.79	18604.00
815.23	18254.00
815.67	18244.00
816.12	18307.00
816.56	18186.00
817.00	18357.00
817.44	18577.00
817.88	18540.00
818.32	18263.00
818.76	18550.00
819.20	18368.00
819.64	18594.00
820.08	18804.00
820.52	19146.00
820.96	19392.00
821.40	19060.00
821.84	18448.00
822.28	17836.00
822.72	17600.00
823.16	17476.00
823.60	18384.00
824.04	19548.00
824.48	19740.00
824.92	19873.00
825.36	19896.00
825.80	19530.00
826.24	19304.00
826.68	19130.00
827.12	19123.00
827.56	18788.00
828.00	18730.00
828.44	18888.00
828.88	19168.00
829.32	19155.00
829.76	19363.00
830.20	19758.00
830.64	19368.00
831.08	19318.00
831.52	19144.00
831.96	18990.00
832.40	18548.00
832.84	18856.00
833.28	18894.00
833.72	19474.00
834.16	19564.00
834.60	19948.00
835.04	20520.00
835.48	20396.00
835.91	20442.00
836.35	20370.00
836.79	20248.00
837.23	20284.00
837.67	19942.00
838.11	19804.00
838.55	19844.00
838.99	19812.00
839.43	20036.00
839.87	20214.00
840.30	20416.00
840.74	20732.00
841.18	20740.00
841.62	20944.00
842.06	20948.00
842.50	20958.00
842.94	20756.00
843.38	20456.00
843.81	20060.00
844.25	19918.00
844.69	19834.00
845.13	19747.00
845.57	19757.00
846.01	19930.00
846.45	20076.00
846.88	20195.00
847.32	20426.00
847.76	20708.00
848.20	20732.00
848.64	20432.00
849.08	20269.00
849.51	20314.00
849.95	19914.00
850.39	19942.00
850.83	20123.00
851.27	19770.00
851.70	19610.00
852.14	19636.00
852.58	19112.00
853.02	18472.00
853.46	18049.00
853.89	18146.00
854.33	18134.00
854.77	18694.00
855.21	19956.00
855.65	20369.00
856.08	20762.00
856.52	20770.00
856.96	20580.00
857.40	20306.00
857.83	19962.00
858.27	19608.00
858.71	19300.00
859.15	19250.00
859.58	19358.00
860.02	19602.00
860.46	19700.00
860.89	20254.00
861.33	20272.00
861.77	20520.00
862.21	20540.00
862.64	20580.00
863.08	20539.00
863.52	20370.00
863.95	20022.00
864.39	19718.00
864.83	18954.00
865.27	18408.00
865.70	18200.00
866.14	17809.00
866.58	17924.00
867.01	18678.00
867.45	19240.00
867.89	19690.00
868.32	20038.00
868.76	20348.00
869.20	20302.00
869.63	20522.00
870.07	20146.00
870.51	19812.00
870.94	19367.00
871.38	19012.00
871.82	18674.00
872.25	18644.00
872.69	18528.00
873.13	18540.00
873.56	18990.00
874.00	19208.00
874.43	19228.00
874.87	19458.00
875.31	19736.00
875.74	19802.00
876.18	20121.00
876.61	19988.00
877.05	19866.00
877.49	19621.00
877.92	19334.00
878.36	19146.00
878.79	18792.00
879.23	18440.00
879.67	18071.00
880.10	18102.00
880.54	18056.00
880.97	18224.00
881.41	18756.00
881.84	19256.00
882.28	19450.00
882.72	19832.00
883.15	19956.00
883.59	20114.00
884.02	20062.00
884.46	20000.00
884.89	19674.00
885.33	19188.00
885.76	18740.00
886.20	18422.00
886.63	18244.00
887.07	18094.00
887.50	18030.00
887.94	18132.00
888.37	18216.00
888.81	18542.00
889.24	18700.00
889.68	18730.00
890.11	19140.00
890.55	19343.00
890.98	19532.00
891.42	19324.00
891.85	19174.00
892.29	19108.00
892.72	18658.00
893.16	18242.00
893.59	17740.00
894.03	17400.00
894.46	16756.00
894.90	16265.00
895.33	15632.00
895.77	15583.00
896.20	15528.00
896.63	15504.00
897.07	15519.00
897.50	15394.00
897.94	15734.00
898.37	16155.00
898.81	15102.00
899.24	15276.00
899.68	15994.00
900.11	15590.00
900.54	15316.00
900.98	15045.00
901.41	15160.00
901.85	15264.00
902.28	15249.00
902.71	15360.00
903.15	15920.00
903.58	16404.00
904.02	16334.00
904.45	16250.00
904.88	16152.00
905.32	16027.00
905.75	16084.00
906.18	15538.00
906.62	15650.00
907.05	15314.00
907.48	15412.00
907.92	15210.00
908.35	15266.00
908.79	14996.00
909.22	14792.00
909.65	14900.00
910.09	14674.00
910.52	14536.00
910.95	14530.00
911.38	14468.00
911.82	14141.00
912.25	14493.00
912.68	14600.00
913.12	14570.00
913.55	14560.00
913.98	15002.00
914.42	15620.00
914.85	15743.00
915.28	15140.00
915.72	15154.00
916.15	14958.00
916.58	15038.00
917.01	14310.00
917.45	14164.00
917.88	14560.00
918.31	14730.00
918.74	15168.00
919.18	15226.00
919.61	15218.00
920.04	15513.00
920.47	15663.00
920.91	15744.00
921.34	15603.00
921.77	15810.00
922.20	16098.00
922.64	15964.00
923.07	16064.00
923.50	15726.00
923.93	15590.00
924.37	15505.00
924.80	15208.00
925.23	14964.00
925.66	14650.00
926.09	13854.00
926.53	13670.00
926.96	13184.00
927.39	12740.00
927.82	12028.00
928.25	11608.00
928.69	11626.00
929.12	11318.00
929.55	10876.00
929.98	10542.00
930.41	10034.00
930.84	9570.00
931.28	9008.00
931.71	8566.00
932.14	7827.00
932.57	7774.00
933.00	7408.00
933.43	7218.00
933.86	6860.00
934.30	6743.00
934.73	7306.00
935.16	6926.00
935.59	6689.00
936.02	6946.00
936.45	6834.00
936.88	6878.00
937.31	7414.00
937.75	7538.00
938.18	7820.00
938.61	8192.00
939.04	8432.00
939.47	8226.00
939.90	7928.00
940.33	7744.00
940.76	7182.00
941.19	7071.00
941.62	7020.00
942.05	6812.00
942.48	6312.00
942.91	6362.00
943.35	6662.00
943.78	6278.00
944.21	6326.00
944.64	6704.00
945.07	6768.00
945.50	6626.00
945.93	6835.00
946.36	6992.00
946.79	7196.00
947.22	7496.00
947.65	7252.00
948.08	7086.00
948.51	7482.00
948.94	7548.00
949.37	7322.00
949.80	7142.00
950.23	7222.00
950.66	7464.00
951.09	7379.00
951.52	7148.00
951.95	7222.00
952.38	7461.00
952.81	7780.00
953.24	8008.00
953.67	8129.00
954.10	7992.00
954.53	8256.00
954.96	8228.00
955.39	8498.00
955.82	8861.00
956.25	8588.00
956.68	8902.00
957.11	8864.00
957.53	8645.00
957.96	8562.00
958.39	8484.00
958.82	8202.00
959.25	8428.00
959.68	8582.00
960.11	8737.00
960.54	8927.00
960.97	9220.00
961.40	9502.00
961.83	9352.00
962.26	9520.00
962.68	10186.00
963.11	10236.00
963.54	10250.00
963.97	10488.00
964.40	10438.00
964.83	10802.00
965.26	10792.00
965.69	10683.00
966.11	10520.00
966.54	10598.00
966.97	10978.00
967.40	11098.00
967.83	11208.00
968.26	11056.00
968.69	11062.00
969.11	11210.00
969.54	11188.00
969.97	11278.00
970.40	11320.00
970.83	11344.00
971.26	11572.00
971.68	11312.00
972.11	11542.00
972.54	11668.00
972.97	11583.00
973.40	11493.00
973.82	11472.00
974.25	11526.00
974.68	11308.00
975.11	11122.00
975.54	11062.00
975.96	10903.00
976.39	10854.00
976.82	10996.00
977.25	10778.00
977.67	10828.00
978.10	10885.00
978.53	10892.00
978.96	11234.00
979.38	11370.00
979.81	11468.00
980.24	11786.00
980.67	12040.00
981.09	12174.00
981.52	12268.00
981.95	12279.00
982.38	12404.00
982.80	12372.00
983.23	12688.00
983.66	12590.00
984.08	12483.00
984.51	12448.00
984.94	12334.00
985.37	12216.00
985.79	12002.00
986.22	11796.00
986.65	11712.00
987.07	11542.00
987.50	11452.00
987.93	11566.00
988.35	11640.00
988.78	11657.00
989.21	11653.00
989.63	11876.00
990.06	11913.00
990.49	12189.00
990.91	12516.00
991.34	12472.00
991.77	12434.00
992.19	12482.00
992.62	12400.00
993.05	12466.00
993.47	12292.00
993.90	12278.00
994.32	12084.00
994.75	11943.00
995.18	11530.00
995.60	11560.00
996.03	11336.00
996.45	11436.00
996.88	11238.00
997.31	11213.00
997.73	11218.00
998.16	11122.00
998.58	11336.00
999.01	11328.00
999.44	11592.00
999.86	11592.00
1000.29	11642.00
1000.71	11736.00
1001.14	11852.00
1001.56	11852.00
1001.99	11760.00
1002.41	11576.00
1002.84	11332.00
1003.27	11260.00
1003.69	11036.00
1004.12	10814.00
1004.54	10626.00
1004.97	10513.00
1005.39	10286.00
1005.82	10492.00
1006.24	10370.00
1006.67	10260.00
1007.09	10322.00
1007.52	10366.00
1007.94	10358.00
1008.37	10459.00
1008.79	10344.00
1009.22	10377.00
1009.64	10348.00
1010.07	10366.00
1010.49	10492.00
1010.92	10488.00
1011.34	10520.00
1011.77	10552.00
1012.19	10480.00
1012.62	10540.00
1013.04	10218.00
1013.46	10205.00
1013.89	9984.00
1014.31	9824.00
1014.74	9600.00
1015.16	9614.00
1015.59	9478.00
1016.01	9594.00
1016.44	9590.00
1016.86	10525.00
1017.28	9632.00
1017.71	9621.00
1018.13	9818.00
1018.56	9883.00
1018.98	9906.00
1019.40	9889.00
1019.83	10060.00
1020.25	10046.00
1020.68	10070.00
1021.10	10204.00
1021.52	10236.00
1021.95	10544.00
1022.37	10309.00
1022.79	10144.00
1023.22	10223.00
1023.64	10118.00
1024.07	10036.00
1024.49	9929.00
1024.91	9756.00
1025.34	9600.00
1025.76	9810.00
1026.18	9574.00
1026.61	9480.00
1027.03	9402.00
1027.45	9512.00
1027.88	9440.00
1028.30	9681.00
1028.72	9584.00
1029.15	9689.00
1029.57	9714.00
1029.99	9826.00
1030.41	9615.00
1030.84	9740.00
1031.26	9642.00
1031.68	9680.00
1032.11	9596.00
1032.53	9418.00
1032.95	9353.00
1033.37	9236.00
1033.80	9220.00
1034.22	9032.00
1034.64	9016.00
1035.06	8828.00
1035.49	8702.00
1035.91	8682.00
1036.33	8558.00
1036.75	8498.00
1037.18	8513.00
1037.60	8480.00
1038.02	8587.00
1038.44	8494.00
1038.87	8431.00
1039.29	8494.00
1039.71	8580.00
1040.13	8500.00
1040.55	8605.00
1040.98	8544.00
1041.40	8504.00
1041.82	8472.00
1042.24	8400.00
1042.66	8388.00
1043.09	8147.00
1043.51	8144.00
1043.93	8020.00
1044.35	7926.00
1044.77	7890.00
1045.20	7835.00
1045.62	7674.00
1046.04	7662.00
1046.46	7624.00
1046.88	7436.00
1047.30	7530.00
1047.72	7405.00
1048.15	7460.00
1048.57	7276.00
1048.99	7352.00
1049.41	7360.00
1049.83	7321.00
1050.25	7358.00
1050.67	7361.00
1051.09	7224.00
1051.52	7234.00
1051.94	7104.00
1052.36	7262.00
1052.78	7137.00
1053.20	7149.00
1053.62	7110.00
1054.04	7077.00
1054.46	7075.00
1054.88	7044.00
1055.30	6966.00
1055.72	6923.00
1056.14	6807.00
1056.57	6966.00
1056.99	6598.00
1057.41	6630.00
1057.83	6612.00
1058.25	6606.00
1058.67	6452.00
1059.09	6432.00
1059.51	6412.00
1059.93	6350.00
1060.35	6300.00
1060.77	6322.00
1061.19	6370.00
1061.61	6246.00
1062.03	6208.00
1062.45	6192.00
1062.87	6252.00
1063.29	6189.00
1063.71	6120.00
1064.13	6132.00
1064.55	6047.00
1064.97	6096.00
1065.39	6036.00
1065.81	6006.00
1066.23	5996.00
1066.65	6032.00
1067.07	6064.00
1067.49	5908.00
1067.91	5816.00
1068.33	5688.00
1068.75	5812.00
1069.17	5778.00
1069.59	5821.00
1070.00	5602.00
1070.42	5658.00
1070.84	5674.00
1071.26	5532.00
1071.68	5484.00
1072.10	5553.00
1072.52	5464.00
1072.94	5486.00
1073.36	5446.00
1073.78	5496.00
1074.20	5492.00
1074.62	5442.00
1075.03	5490.00
1075.45	5456.00
1075.87	5581.00
1076.29	5430.00
1076.71	5531.00
1077.13	5478.00
1077.55	5265.00
1077.97	5322.00
1078.38	5246.00
1078.80	5272.00
1079.22	5200.00
1079.64	5202.00
1080.06	5148.00
1080.48	5184.00
1080.89	5120.00
1081.31	5018.00
1081.73	5020.00
1082.15	4980.00
1082.57	5121.00
1082.99	5036.00
1083.40	4920.00
1083.82	4986.00
1084.24	4906.00
1084.66	4934.00
1085.08	4958.00
1085.49	4788.00
1085.91	4936.00
1086.33	6314.00
1086.75	4897.00
1087.17	4820.00
1087.58	4799.00
1088.00	4858.00
1088.42	4926.00
1088.84	4777.00
1089.25	4812.00
1089.67	4763.00
1090.09	4779.00
1090.51	4670.00
1090.92	4712.00
1091.34	4636.00
1091.76	4658.00
1092.18	4574.00
1092.59	4584.00
1093.01	4574.00
1093.43	4562.00
1093.84	4497.00
1094.26	4484.00
1094.68	4450.00
1095.10	4446.00
1095.51	4434.00
1095.93	4410.00
1096.35	4478.00
1096.76	4448.00
1097.18	4417.00
1097.60	4398.00
1098.01	4388.00
1098.43	4302.00
1098.85	4342.00
1099.26	4318.00
1099.68	4285.00
1100.10	4262.00
1100.51	4250.00
1100.93	4166.00
1101.35	4206.00
1101.76	4208.00
1102.18	4738.00
1102.60	4178.00
1103.01	4040.00
1103.43	4126.00
1103.84	4152.00
1104.26	4064.00
1104.68	4082.00
1105.09	4024.00
1105.51	4052.00
1105.92	4084.00
1106.34	3999.00
1106.76	4006.00
1107.17	4022.00
1107.59	3991.00
1108.00	3848.00
1108.42	3952.00
1108.83	3850.00
1109.25	3862.00
1109.67	3828.00
1110.08	3880.00
1110.50	3769.00
1110.91	3803.00
1111.33	3744.00
1111.74	3732.00
1112.16	3810.00
1112.57	3754.00
1112.99	3736.00
1113.41	3764.00
1113.82	3700.00
1114.24	3706.00
1114.65	3652.00
1115.07	3498.00
1115.48	3390.00
1115.90	2194.00
1116.31	2218.00
1116.73	2216.00
1117.14	2221.00
>>>>>End Processed Spectral Data<<<<<
