SpectraSuite Data File
++++++++++++++++++++++++++++++++++++
Date: Tue May 29 13:10:55 EEST 2018
User: CanSEE
Dark Spectrum Present: No
Reference Spectrum Present: No
Number of Sampled Component Spectra: 1
Spectrometers: MAYP11278
Integration Time (usec): 230000 (MAYP11278)
Spectra Averaged: 1 (MAYP11278)
Boxcar Smoothing: 0 (MAYP11278)
Correct for Electrical Dark: No (MAYP11278)
Strobe/Lamp Enabled: No (MAYP11278)
Correct for Detector Non-linearity: No (MAYP11278)
Correct for Stray Light: No (MAYP11278)
Number of Pixels in Processed Spectrum: 2068
>>>>>Begin Processed Spectral Data<<<<<
187.82	2331.00
188.30	2236.00
188.78	2211.00
189.26	2213.00
189.73	3172.00
190.21	3353.00
190.69	3445.00
191.17	3432.00
191.64	3478.00
192.12	3441.00
192.60	3393.00
193.07	3381.00
193.55	3425.00
194.03	3397.00
194.51	3391.00
194.98	3383.00
195.46	3467.00
195.94	3392.00
196.42	3397.00
196.89	3511.00
197.37	3431.00
197.85	3396.00
198.32	3411.00
198.80	3371.00
199.28	3431.00
199.76	3472.00
200.23	3439.00
200.71	3417.00
201.19	3463.00
201.66	3473.00
202.14	3429.00
202.62	3360.00
203.09	3415.00
203.57	3397.00
204.05	3431.00
204.53	3518.00
205.00	3399.00
205.48	3396.00
205.96	3508.00
206.43	3420.00
206.91	3460.00
207.39	3551.00
207.86	3407.00
208.34	3489.00
208.82	3440.00
209.29	3483.00
209.77	3461.00
210.25	3458.00
210.72	3440.00
211.20	3458.00
211.68	3449.00
212.15	3400.00
212.63	3523.00
213.11	3462.00
213.58	3407.00
214.06	3499.00
214.53	3433.00
215.01	3505.00
215.49	3441.00
215.96	3462.00
216.44	3463.00
216.92	3433.00
217.39	3438.00
217.87	3448.00
218.35	3475.00
218.82	3398.00
219.30	3398.00
219.77	3432.00
220.25	3417.00
220.73	3498.00
221.20	3445.00
221.68	3447.00
222.15	3445.00
222.63	3468.00
223.11	3421.00
223.58	3474.00
224.06	3459.00
224.53	3465.00
225.01	3395.00
225.49	3440.00
225.96	3411.00
226.44	3404.00
226.91	3521.00
227.39	3413.00
227.87	3446.00
228.34	3501.00
228.82	3475.00
229.29	3452.00
229.77	3433.00
230.24	3427.00
230.72	3485.00
231.20	3503.00
231.67	3469.00
232.15	3491.00
232.62	3401.00
233.10	3444.00
233.57	3453.00
234.05	3626.00
234.53	3448.00
235.00	3445.00
235.48	3448.00
235.95	3418.00
236.43	3500.00
236.90	3549.00
237.38	3406.00
237.85	3480.00
238.33	3475.00
238.80	3456.00
239.28	3436.00
239.75	3429.00
240.23	3480.00
240.71	3525.00
241.18	3470.00
241.66	3476.00
242.13	3484.00
242.61	3539.00
243.08	3401.00
243.56	3435.00
244.03	3485.00
244.51	3533.00
244.98	3427.00
245.46	3465.00
245.93	5131.00
246.41	3361.00
246.88	3467.00
247.36	3437.00
247.83	3440.00
248.31	3455.00
248.78	3392.00
249.26	3466.00
249.73	3507.00
250.21	3474.00
250.68	3539.00
251.16	3464.00
251.63	3563.00
252.10	3484.00
252.58	3457.00
253.05	3493.00
253.53	3466.00
254.00	3442.00
254.48	3482.00
254.95	3481.00
255.43	3460.00
255.90	3439.00
256.38	3509.00
256.85	3464.00
257.33	3501.00
257.80	3643.00
258.27	3509.00
258.75	3442.00
259.22	3482.00
259.70	3499.00
260.17	3551.00
260.65	3384.00
261.12	3453.00
261.59	3535.00
262.07	3454.00
262.54	3513.00
263.02	3470.00
263.49	3432.00
263.97	3487.00
264.44	3470.00
264.91	3449.00
265.39	3512.00
265.86	3478.00
266.34	3515.00
266.81	3445.00
267.28	3502.00
267.76	3474.00
268.23	3468.00
268.71	3374.00
269.18	3453.00
269.65	3427.00
270.13	3487.00
270.60	3486.00
271.08	3416.00
271.55	3521.00
272.02	3430.00
272.50	3425.00
272.97	3391.00
273.44	3432.00
273.92	3638.00
274.39	3497.00
274.87	3478.00
275.34	3415.00
275.81	3447.00
276.29	3429.00
276.76	3449.00
277.23	3328.00
277.71	3374.00
278.18	3328.00
278.65	3538.00
279.13	3382.00
279.60	3443.00
280.07	3715.00
280.55	3687.00
281.02	3765.00
281.50	3514.00
281.97	3588.00
282.44	3519.00
282.91	3530.00
283.39	3519.00
283.86	3439.00
284.33	3469.00
284.81	3539.00
285.28	3526.00
285.75	3487.00
286.23	3478.00
286.70	3451.00
287.17	3527.00
287.65	3514.00
288.12	3475.00
288.59	3510.00
289.07	3378.00
289.54	3540.00
290.01	3453.00
290.48	3509.00
290.96	3484.00
291.43	3493.00
291.90	3559.00
292.38	3439.00
292.85	3495.00
293.32	3465.00
293.79	3495.00
294.27	3499.00
294.74	3469.00
295.21	3473.00
295.69	3505.00
296.16	3538.00
296.63	3534.00
297.10	3521.00
297.58	3469.00
298.05	3498.00
298.52	3469.00
298.99	3502.00
299.47	3441.00
299.94	3504.00
300.41	3435.00
300.88	3526.00
301.36	3546.00
301.83	3548.00
302.30	3448.00
302.77	3563.00
303.25	3507.00
303.72	3473.00
304.19	3521.00
304.66	3443.00
305.13	3505.00
305.61	3479.00
306.08	3478.00
306.55	3520.00
307.02	3478.00
307.49	3439.00
307.97	3503.00
308.44	3483.00
308.91	3518.00
309.38	3555.00
309.86	3494.00
310.33	3500.00
310.80	3500.00
311.27	3483.00
311.74	3572.00
312.21	3493.00
312.69	3559.00
313.16	3475.00
313.63	3500.00
314.10	3546.00
314.57	3461.00
315.05	3480.00
315.52	3566.00
315.99	3522.00
316.46	3512.00
316.93	3553.00
317.40	3518.00
317.88	3629.00
318.35	3540.00
318.82	3478.00
319.29	3431.00
319.76	3529.00
320.23	3588.00
320.70	3568.00
321.18	3469.00
321.65	3440.00
322.12	3422.00
322.59	3605.00
323.06	3523.00
323.53	3609.00
324.00	3480.00
324.48	3522.00
324.95	3494.00
325.42	3524.00
325.89	3503.00
326.36	3514.00
326.83	3554.00
327.30	3564.00
327.77	3585.00
328.24	3547.00
328.72	3504.00
329.19	3503.00
329.66	3487.00
330.13	3499.00
330.60	3528.00
331.07	3546.00
331.54	3614.00
332.01	3492.00
332.48	3579.00
332.95	3539.00
333.43	3532.00
333.90	3601.00
334.37	3542.00
334.84	3547.00
335.31	3711.00
335.78	3502.00
336.25	3504.00
336.72	3513.00
337.19	3542.00
337.66	3538.00
338.13	3503.00
338.60	3597.00
339.07	3572.00
339.54	3479.00
340.01	3483.00
340.49	3490.00
340.96	3537.00
341.43	3567.00
341.90	3511.00
342.37	3527.00
342.84	3540.00
343.31	3539.00
343.78	3482.00
344.25	3506.00
344.72	3494.00
345.19	3545.00
345.66	3565.00
346.13	3502.00
346.60	3469.00
347.07	3577.00
347.54	3513.00
348.01	3608.00
348.48	3528.00
348.95	3452.00
349.42	3510.00
349.89	3548.00
350.36	3513.00
350.83	3530.00
351.30	3564.00
351.77	3595.00
352.24	3566.00
352.71	3510.00
353.18	3544.00
353.65	3546.00
354.12	3555.00
354.59	3549.00
355.06	3516.00
355.53	3623.00
356.00	3513.00
356.47	3605.00
356.94	3488.00
357.41	3653.00
357.88	3556.00
358.35	3458.00
358.82	3518.00
359.28	3496.00
359.75	3493.00
360.22	3599.00
360.69	3598.00
361.16	3517.00
361.63	3490.00
362.10	3539.00
362.57	3523.00
363.04	3558.00
363.51	3617.00
363.98	3541.00
364.45	3518.00
364.92	3590.00
365.39	3525.00
365.86	3509.00
366.32	3567.00
366.79	3521.00
367.26	4461.00
367.73	3891.00
368.20	3494.00
368.67	3590.00
369.14	3500.00
369.61	3592.00
370.08	3555.00
370.55	3499.00
371.02	4402.00
371.48	3567.00
371.95	3510.00
372.42	3468.00
372.89	3563.00
373.36	3561.00
373.83	3459.00
374.30	3475.00
374.77	3534.00
375.23	3474.00
375.70	3604.00
376.17	3528.00
376.64	3482.00
377.11	3475.00
377.58	3545.00
378.05	3533.00
378.51	3506.00
378.98	3538.00
379.45	3497.00
379.92	3544.00
380.39	3649.00
380.86	3531.00
381.33	3612.00
381.79	3569.00
382.26	3474.00
382.73	3529.00
383.20	3533.00
383.67	3556.00
384.14	3552.00
384.60	3756.00
385.07	3494.00
385.54	3568.00
386.01	3516.00
386.48	3625.00
386.94	3477.00
387.41	3464.00
387.88	3585.00
388.35	3518.00
388.82	3568.00
389.28	3484.00
389.75	3589.00
390.22	3559.00
390.69	3567.00
391.16	3525.00
391.62	3533.00
392.09	3524.00
392.56	3508.00
393.03	3527.00
393.50	3638.00
393.96	3542.00
394.43	3570.00
394.90	3482.00
395.37	3585.00
395.83	3743.00
396.30	3479.00
396.77	3548.00
397.24	3577.00
397.70	3515.00
398.17	3532.00
398.64	3481.00
399.11	3533.00
399.57	3553.00
400.04	3487.00
400.51	3523.00
400.98	3545.00
401.44	3562.00
401.91	3570.00
402.38	3556.00
402.84	3464.00
403.31	3627.00
403.78	3544.00
404.25	3592.00
404.71	3631.00
405.18	3587.00
405.65	3494.00
406.12	3601.00
406.58	3525.00
407.05	3647.00
407.52	3547.00
407.98	4087.00
408.45	3573.00
408.92	3502.00
409.38	3618.00
409.85	3497.00
410.32	3634.00
410.78	3493.00
411.25	3617.00
411.72	3539.00
412.18	3487.00
412.65	3574.00
413.12	3572.00
413.59	3579.00
414.05	3608.00
414.52	3637.00
414.98	3580.00
415.45	3673.00
415.92	3631.00
416.38	3557.00
416.85	3636.00
417.32	3601.00
417.78	3550.00
418.25	3587.00
418.72	3587.00
419.18	3658.00
419.65	3572.00
420.12	3664.00
420.58	3581.00
421.05	3641.00
421.51	3612.00
421.98	3657.00
422.45	3562.00
422.91	3585.00
423.38	3624.00
423.85	3649.00
424.31	3615.00
424.78	3635.00
425.24	3609.00
425.71	3726.00
426.18	3625.00
426.64	3688.00
427.11	3629.00
427.57	3675.00
428.04	3617.00
428.51	3665.00
428.97	3676.00
429.44	3638.00
429.90	3598.00
430.37	3766.00
430.83	3591.00
431.30	3667.00
431.77	3723.00
432.23	3697.00
432.70	3653.00
433.16	3642.00
433.63	3675.00
434.09	3659.00
434.56	3715.00
435.03	3641.00
435.49	3701.00
435.96	3705.00
436.42	3639.00
436.89	3751.00
437.35	3675.00
437.82	3687.00
438.28	3637.00
438.75	3671.00
439.21	3878.00
439.68	3717.00
440.14	3732.00
440.61	3748.00
441.07	3701.00
441.54	3722.00
442.00	3839.00
442.47	3715.00
442.94	3727.00
443.40	3709.00
443.87	3689.00
444.33	3756.00
444.80	3769.00
445.26	3707.00
445.73	3710.00
446.19	3772.00
446.65	3770.00
447.12	3770.00
447.58	3706.00
448.05	3723.00
448.51	3803.00
448.98	3810.00
449.44	3724.00
449.91	3733.00
450.37	3716.00
450.84	3754.00
451.30	3748.00
451.77	3809.00
452.23	3745.00
452.70	3807.00
453.16	3725.00
453.62	3781.00
454.09	3773.00
454.55	3813.00
455.02	3742.00
455.48	3777.00
455.95	3794.00
456.41	3732.00
456.88	3833.00
457.34	3725.00
457.80	3713.00
458.27	3680.00
458.73	3762.00
459.20	3790.00
459.66	3803.00
460.13	3711.00
460.59	3697.00
461.05	3808.00
461.52	3769.00
461.98	3698.00
462.45	3681.00
462.91	3793.00
463.37	3718.00
463.84	3719.00
464.30	3725.00
464.76	3645.00
465.23	3673.00
465.69	3747.00
466.16	3686.00
466.62	3678.00
467.08	3713.00
467.55	3693.00
468.01	3675.00
468.48	3703.00
468.94	3709.00
469.40	3672.00
469.87	3682.00
470.33	3634.00
470.79	3639.00
471.26	3602.00
471.72	3651.00
472.18	3613.00
472.65	3682.00
473.11	3746.00
473.57	3697.00
474.04	3689.00
474.50	3687.00
474.96	3625.00
475.43	3665.00
475.89	3671.00
476.35	3695.00
476.82	3669.00
477.28	3689.00
477.74	3703.00
478.21	3663.00
478.67	3691.00
479.13	3655.00
479.59	3733.00
480.06	3675.00
480.52	3662.00
480.98	3605.00
481.45	3650.00
481.91	3679.00
482.37	3628.00
482.84	3671.00
483.30	3603.00
483.76	3654.00
484.22	3726.00
484.69	3647.00
485.15	3621.00
485.61	3527.00
486.07	3587.00
486.54	3538.00
487.00	3613.00
487.46	3581.00
487.92	3574.00
488.39	3651.00
488.85	3689.00
489.31	3647.00
489.77	3689.00
490.24	3612.00
490.70	3657.00
491.16	3604.00
491.62	3583.00
492.09	3618.00
492.55	3692.00
493.01	3661.00
493.47	3652.00
493.94	3677.00
494.40	3690.00
494.86	3635.00
495.32	3656.00
495.78	3695.00
496.25	3709.00
496.71	3693.00
497.17	3741.00
497.63	3778.00
498.09	3666.00
498.56	3703.00
499.02	3723.00
499.48	3807.00
499.94	3701.00
500.40	3711.00
500.87	3724.00
501.33	3711.00
501.79	3774.00
502.25	3792.00
502.71	4047.00
503.17	3747.00
503.64	3764.00
504.10	3735.00
504.56	3768.00
505.02	3836.00
505.48	3797.00
505.94	3811.00
506.40	3902.00
506.87	3851.00
507.33	3901.00
507.79	3908.00
508.25	3885.00
508.71	3900.00
509.17	3898.00
509.63	3925.00
510.10	3962.00
510.56	3983.00
511.02	4071.00
511.48	4073.00
511.94	4021.00
512.40	4007.00
512.86	4076.00
513.32	4107.00
513.78	4040.00
514.25	4170.00
514.71	4797.00
515.17	4139.00
515.63	4191.00
516.09	4229.00
516.55	4145.00
517.01	4319.00
517.47	4260.00
517.93	4278.00
518.39	4482.00
518.85	4367.00
519.32	4461.00
519.78	4413.00
520.24	4469.00
520.70	4568.00
521.16	4618.00
521.62	4690.00
522.08	4647.00
522.54	4691.00
523.00	4800.00
523.46	4849.00
523.92	4831.00
524.38	4982.00
524.84	4930.00
525.30	4968.00
525.76	4935.00
526.22	4789.00
526.68	4847.00
527.14	4965.00
527.60	4972.00
528.06	5155.00
528.52	5176.00
528.98	5143.00
529.44	5189.00
529.90	5183.00
530.36	5345.00
530.82	5257.00
531.28	5382.00
531.74	5384.00
532.20	5265.00
532.66	5267.00
533.12	5331.00
533.58	5365.00
534.04	5393.00
534.50	5433.00
534.96	5453.00
535.42	5550.00
535.88	5492.00
536.34	5474.00
536.80	5422.00
537.26	5541.00
537.72	5564.00
538.18	5608.00
538.64	5644.00
539.10	5535.00
539.56	5791.00
540.02	5485.00
540.48	5579.00
540.94	5618.00
541.40	5575.00
541.86	5635.00
542.32	5675.00
542.78	5641.00
543.24	5743.00
543.69	5630.00
544.15	5845.00
544.61	5649.00
545.07	5636.00
545.53	5806.00
545.99	5749.00
546.45	5751.00
546.91	5713.00
547.37	5741.00
547.83	5752.00
548.29	5810.00
548.74	5812.00
549.20	5737.00
549.66	5973.00
550.12	5785.00
550.58	5750.00
551.04	5904.00
551.50	5913.00
551.96	5996.00
552.42	5843.00
552.87	5802.00
553.33	5826.00
553.79	5794.00
554.25	5889.00
554.71	5835.00
555.17	5849.00
555.63	5943.00
556.08	5817.00
556.54	5778.00
557.00	5686.00
557.46	5812.00
557.92	5854.00
558.38	5695.00
558.83	5686.00
559.29	5684.00
559.75	5661.00
560.21	5700.00
560.67	5759.00
561.13	5709.00
561.58	5722.00
562.04	5599.00
562.50	5639.00
562.96	5686.00
563.42	5691.00
563.87	5571.00
564.33	5631.00
564.79	5573.00
565.25	5497.00
565.71	5453.00
566.16	5535.00
566.62	5491.00
567.08	5456.00
567.54	5470.00
568.00	5452.00
568.45	5418.00
568.91	5348.00
569.37	5391.00
569.83	5297.00
570.28	5290.00
570.74	5296.00
571.20	5234.00
571.66	5201.00
572.11	5249.00
572.57	5253.00
573.03	5181.00
573.49	5134.00
573.94	5190.00
574.40	5189.00
574.86	5103.00
575.32	5015.00
575.77	5079.00
576.23	5014.00
576.69	5086.00
577.15	5013.00
577.60	5034.00
578.06	4942.00
578.52	5000.00
578.97	4959.00
579.43	4887.00
579.89	4967.00
580.34	4955.00
580.80	4916.00
581.26	4931.00
581.72	4915.00
582.17	4925.00
582.63	4890.00
583.09	4907.00
583.54	4882.00
584.00	4915.00
584.46	4896.00
584.91	4842.00
585.37	4943.00
585.83	4766.00
586.28	4833.00
586.74	4816.00
587.20	4744.00
587.65	4882.00
588.11	4689.00
588.57	4692.00
589.02	4600.00
589.48	4556.00
589.94	4629.00
590.39	4669.00
590.85	4637.00
591.30	4660.00
591.76	4727.00
592.22	4633.00
592.67	4667.00
593.13	4687.00
593.59	4682.00
594.04	4638.00
594.50	4613.00
594.95	4714.00
595.41	4610.00
595.87	4613.00
596.32	4703.00
596.78	4668.00
597.23	4721.00
597.69	4620.00
598.15	4605.00
598.60	4605.00
599.06	4689.00
599.51	4609.00
599.97	4699.00
600.43	4637.00
600.88	4591.00
601.34	4621.00
601.79	4504.00
602.25	4705.00
602.70	4569.00
603.16	4599.00
603.61	4563.00
604.07	4514.00
604.53	4614.00
604.98	4576.00
605.44	4576.00
605.89	4538.00
606.35	4465.00
606.80	4510.00
607.26	4545.00
607.71	4469.00
608.17	4529.00
608.62	4480.00
609.08	4640.00
609.53	4479.00
609.99	4451.00
610.44	4378.00
610.90	4451.00
611.35	4323.00
611.81	4503.00
612.26	4414.00
612.72	4389.00
613.17	4515.00
613.63	4288.00
614.08	4281.00
614.54	4343.00
614.99	4264.00
615.45	4322.00
615.90	4276.00
616.36	4187.00
616.81	4236.00
617.27	4319.00
617.72	4349.00
618.18	4303.00
618.63	4271.00
619.09	4263.00
619.54	4297.00
619.99	4255.00
620.45	4314.00
620.90	4316.00
621.36	4276.00
621.81	4287.00
622.27	4299.00
622.72	4295.00
623.18	4201.00
623.63	4197.00
624.08	4252.00
624.54	4174.00
624.99	4149.00
625.45	4204.00
625.90	4159.00
626.35	4218.00
626.81	4249.00
627.26	4168.00
627.72	4168.00
628.17	4220.00
628.62	4118.00
629.08	4200.00
629.53	4185.00
629.99	4093.00
630.44	4235.00
630.89	4165.00
631.35	4246.00
631.80	4190.00
632.26	4246.00
632.71	4155.00
633.16	4123.00
633.62	4139.00
634.07	4157.00
634.52	4127.00
634.98	4206.00
635.43	4101.00
635.88	4127.00
636.34	4141.00
636.79	4124.00
637.24	4096.00
637.70	4130.00
638.15	4175.00
638.60	4149.00
639.06	4109.00
639.51	4092.00
639.96	4012.00
640.42	4103.00
640.87	4093.00
641.32	3978.00
641.78	4043.00
642.23	4007.00
642.68	3951.00
643.14	3938.00
643.59	4008.00
644.04	3993.00
644.49	3964.00
644.95	3928.00
645.40	3917.00
645.85	3947.00
646.31	3897.00
646.76	3941.00
647.21	3917.00
647.66	3837.00
648.12	3864.00
648.57	3811.00
649.02	3889.00
649.47	3849.00
649.93	4064.00
650.38	3825.00
650.83	3805.00
651.28	3829.00
651.74	3810.00
652.19	3825.00
652.64	3808.00
653.09	3806.00
653.55	3765.00
654.00	3827.00
654.45	3834.00
654.90	3773.00
655.35	3726.00
655.81	3761.00
656.26	3675.00
656.71	3735.00
657.16	3709.00
657.62	3783.00
658.07	3711.00
658.52	3763.00
658.97	3689.00
659.42	3951.00
659.88	3742.00
660.33	3764.00
660.78	3749.00
661.23	3676.00
661.68	3693.00
662.13	3638.00
662.59	3635.00
663.04	3671.00
663.49	3622.00
663.94	3629.00
664.39	3652.00
664.84	3629.00
665.30	3647.00
665.75	3605.00
666.20	3625.00
666.65	3643.00
667.10	3739.00
667.55	3687.00
668.00	3565.00
668.46	3627.00
668.91	3592.00
669.36	3666.00
669.81	3504.00
670.26	3580.00
670.71	3631.00
671.16	3561.00
671.61	3643.00
672.06	3703.00
672.52	3553.00
672.97	3557.00
673.42	3640.00
673.87	3698.00
674.32	3568.00
674.77	3591.00
675.22	3468.00
675.67	3537.00
676.12	3583.00
676.57	3565.00
677.02	3547.00
677.47	3542.00
677.93	3673.00
678.38	3520.00
678.83	3587.00
679.28	3537.00
679.73	3524.00
680.18	3549.00
680.63	3572.00
681.08	3521.00
681.53	3493.00
681.98	3563.00
682.43	3557.00
682.88	3642.00
683.33	3585.00
683.78	3599.00
684.23	3681.00
684.68	3626.00
685.13	3616.00
685.58	3615.00
686.03	3627.00
686.48	3567.00
686.93	3577.00
687.38	3552.00
687.83	3632.00
688.28	3643.00
688.73	3802.00
689.18	3762.00
689.63	3713.00
690.08	3770.00
690.53	3760.00
690.98	3787.00
691.43	3894.00
691.88	3870.00
692.33	3963.00
692.78	4019.00
693.23	4116.00
693.68	4083.00
694.13	4183.00
694.58	4232.00
695.03	4483.00
695.48	4347.00
695.93	4419.00
696.38	4617.00
696.83	4569.00
697.28	4615.00
697.72	4673.00
698.17	4695.00
698.62	4875.00
699.07	4920.00
699.52	4890.00
699.97	4992.00
700.42	5137.00
700.87	5139.00
701.32	5331.00
701.77	5177.00
702.22	5368.00
702.67	5375.00
703.11	5423.00
703.56	5562.00
704.01	5660.00
704.46	5688.00
704.91	5863.00
705.36	5934.00
705.81	6011.00
706.26	5934.00
706.70	6088.00
707.15	6185.00
707.60	6229.00
708.05	6331.00
708.50	6387.00
708.95	6444.00
709.40	6525.00
709.84	6543.00
710.29	6655.00
710.74	6634.00
711.19	6660.00
711.64	6809.00
712.09	6847.00
712.53	6847.00
712.98	7051.00
713.43	6968.00
713.88	7045.00
714.33	7136.00
714.78	7091.00
715.22	7133.00
715.67	7195.00
716.12	7061.00
716.57	6988.00
717.02	6769.00
717.46	6659.00
717.91	6646.00
718.36	6650.00
718.81	6562.00
719.26	6513.00
719.70	6738.00
720.15	6697.00
720.60	6887.00
721.05	7267.00
721.49	7566.00
721.94	7669.00
722.39	7661.00
722.84	7579.00
723.28	7294.00
723.73	7335.00
724.18	7284.00
724.63	7384.00
725.07	7400.00
725.52	7577.00
725.97	7600.00
726.42	7641.00
726.86	7857.00
727.31	7640.00
727.76	7728.00
728.21	7955.00
728.65	7869.00
729.10	7814.00
729.55	7907.00
729.99	8148.00
730.44	7997.00
730.89	8265.00
731.33	8425.00
731.78	8442.00
732.23	8681.00
732.68	8818.00
733.12	8960.00
733.57	8979.00
734.02	9083.00
734.46	9177.00
734.91	9307.00
735.36	9197.00
735.80	9365.00
736.25	9303.00
736.70	9361.00
737.14	9457.00
737.59	9540.00
738.04	9507.00
738.48	9401.00
738.93	9441.00
739.37	9584.00
739.82	9780.00
740.27	9788.00
740.71	9755.00
741.16	9858.00
741.61	9785.00
742.05	9849.00
742.50	9876.00
742.94	10000.00
743.39	9960.00
743.84	10017.00
744.28	10041.00
744.73	10100.00
745.18	10156.00
745.62	10241.00
746.07	10174.00
746.51	10099.00
746.96	10206.00
747.40	10079.00
747.85	10173.00
748.30	10166.00
748.74	10151.00
749.19	10188.00
749.63	10282.00
750.08	10171.00
750.52	10200.00
750.97	10068.00
751.42	10089.00
751.86	10081.00
752.31	10067.00
752.75	10191.00
753.20	10106.00
753.64	10184.00
754.09	10148.00
754.53	10078.00
754.98	10141.00
755.42	10112.00
755.87	10175.00
756.31	10072.00
756.76	10099.00
757.20	10061.00
757.65	9939.00
758.09	9736.00
758.54	9588.00
758.98	8769.00
759.43	7309.00
759.87	6007.00
760.32	5237.00
760.76	5108.00
761.21	5757.00
761.65	6441.00
762.10	6695.00
762.54	6477.00
762.99	6163.00
763.43	6274.00
763.88	6460.00
764.32	6896.00
764.77	7246.00
765.21	7644.00
765.66	7998.00
766.10	8233.00
766.54	8597.00
766.99	8870.00
767.43	9088.00
767.88	9268.00
768.32	9486.00
768.77	9568.00
769.21	9787.00
769.66	9759.00
770.10	9858.00
770.54	9943.00
770.99	9876.00
771.43	9982.00
771.88	9959.00
772.32	9879.00
772.76	9897.00
773.21	9821.00
773.65	9866.00
774.10	9733.00
774.54	9891.00
774.98	9833.00
775.43	9864.00
775.87	10061.00
776.31	10030.00
776.76	9949.00
777.20	9969.00
777.65	9907.00
778.09	9865.00
778.53	9840.00
778.98	9903.00
779.42	9900.00
779.86	9776.00
780.31	9817.00
780.75	9888.00
781.19	9849.00
781.64	9954.00
782.08	9980.00
782.52	9862.00
782.97	9725.00
783.41	9784.00
783.85	9640.00
784.30	9650.00
784.74	9626.00
785.18	9532.00
785.63	9557.00
786.07	9631.00
786.51	9641.00
786.95	9750.00
787.40	9508.00
787.84	9562.00
788.28	9503.00
788.73	9525.00
789.17	9404.00
789.61	9328.00
790.05	9372.00
790.50	9127.00
790.94	9196.00
791.38	9287.00
791.82	9264.00
792.27	9255.00
792.71	9184.00
793.15	9446.00
793.59	9343.00
794.04	9231.00
794.48	9340.00
794.92	9161.00
795.36	9067.00
795.81	8931.00
796.25	9063.00
796.69	9039.00
797.13	9055.00
797.57	9081.00
798.02	9233.00
798.46	9250.00
798.90	9257.00
799.34	9075.00
799.79	9180.00
800.23	8883.00
800.67	8809.00
801.11	8877.00
801.55	8805.00
801.99	8784.00
802.44	8922.00
802.88	9025.00
803.32	8881.00
803.76	8927.00
804.20	9067.00
804.64	8909.00
805.09	9014.00
805.53	9107.00
805.97	8931.00
806.41	8879.00
806.85	8806.00
807.29	8702.00
807.74	8678.00
808.18	8633.00
808.62	8679.00
809.06	8658.00
809.50	8619.00
809.94	8712.00
810.38	8669.00
810.82	8742.00
811.27	8815.00
811.71	8450.00
812.15	8383.00
812.59	8220.00
813.03	8159.00
813.47	7839.00
813.91	7689.00
814.35	7739.00
814.79	7658.00
815.23	7586.00
815.67	7400.00
816.12	7514.00
816.56	7513.00
817.00	7633.00
817.44	7601.00
817.88	7618.00
818.32	7451.00
818.76	7608.00
819.20	7568.00
819.64	7577.00
820.08	7685.00
820.52	7745.00
820.96	7870.00
821.40	7747.00
821.84	7674.00
822.28	7333.00
822.72	7279.00
823.16	7297.00
823.60	7461.00
824.04	7925.00
824.48	7959.00
824.92	8049.00
825.36	8084.00
825.80	7879.00
826.24	7835.00
826.68	7711.00
827.12	7715.00
827.56	7753.00
828.00	7737.00
828.44	7699.00
828.88	7868.00
829.32	7799.00
829.76	7787.00
830.20	8086.00
830.64	7859.00
831.08	7927.00
831.52	7799.00
831.96	7761.00
832.40	7565.00
832.84	7620.00
833.28	7673.00
833.72	7893.00
834.16	7936.00
834.60	8048.00
835.04	8114.00
835.48	8193.00
835.91	8134.00
836.35	8158.00
836.79	8118.00
837.23	8068.00
837.67	7898.00
838.11	8011.00
838.55	7995.00
838.99	7978.00
839.43	8185.00
839.87	8205.00
840.30	8103.00
840.74	8328.00
841.18	8209.00
841.62	8363.00
842.06	8302.00
842.50	8267.00
842.94	8211.00
843.38	8174.00
843.81	8108.00
844.25	8016.00
844.69	7964.00
845.13	8065.00
845.57	8059.00
846.01	8056.00
846.45	8136.00
846.88	8142.00
847.32	8182.00
847.76	8266.00
848.20	8247.00
848.64	8242.00
849.08	8104.00
849.51	8123.00
849.95	8012.00
850.39	7971.00
850.83	8068.00
851.27	7944.00
851.70	7933.00
852.14	7978.00
852.58	7790.00
853.02	7689.00
853.46	7484.00
853.89	7427.00
854.33	7484.00
854.77	7662.00
855.21	7950.00
855.65	8208.00
856.08	8333.00
856.52	8219.00
856.96	8194.00
857.40	8123.00
857.83	7979.00
858.27	7973.00
858.71	7757.00
859.15	7729.00
859.58	7854.00
860.02	7899.00
860.46	7951.00
860.89	8148.00
861.33	8105.00
861.77	8152.00
862.21	8247.00
862.64	8198.00
863.08	8162.00
863.52	8166.00
863.95	7936.00
864.39	7913.00
864.83	7763.00
865.27	7440.00
865.70	7450.00
866.14	7335.00
866.58	7425.00
867.01	7603.00
867.45	7745.00
867.89	7916.00
868.32	7963.00
868.76	8147.00
869.20	8068.00
869.63	8172.00
870.07	8139.00
870.51	7852.00
870.94	7848.00
871.38	7694.00
871.82	7621.00
872.25	7586.00
872.69	7560.00
873.13	7630.00
873.56	7812.00
874.00	7777.00
874.43	7761.00
874.87	7870.00
875.31	8005.00
875.74	7868.00
876.18	8000.00
876.61	7931.00
877.05	7894.00
877.49	7777.00
877.92	7756.00
878.36	7683.00
878.79	7589.00
879.23	7527.00
879.67	7333.00
880.10	7401.00
880.54	7362.00
880.97	7435.00
881.41	7655.00
881.84	7813.00
882.28	7789.00
882.72	7875.00
883.15	8009.00
883.59	8019.00
884.02	8017.00
884.46	7888.00
884.89	7807.00
885.33	7753.00
885.76	7524.00
886.20	7430.00
886.63	7477.00
887.07	7289.00
887.50	7284.00
887.94	7348.00
888.37	7454.00
888.81	7709.00
889.24	7499.00
889.68	7695.00
890.11	7652.00
890.55	7846.00
890.98	7785.00
891.42	7731.00
891.85	7781.00
892.29	7676.00
892.72	7485.00
893.16	7323.00
893.59	7335.00
894.03	7097.00
894.46	6937.00
894.90	6783.00
895.33	6546.00
895.77	6592.00
896.20	6600.00
896.63	6593.00
897.07	6627.00
897.50	6491.00
897.94	6645.00
898.37	6781.00
898.81	6501.00
899.24	6434.00
899.68	6709.00
900.11	6628.00
900.54	6548.00
900.98	6494.00
901.41	6423.00
901.85	6553.00
902.28	6489.00
902.71	6527.00
903.15	6743.00
903.58	6786.00
904.02	6854.00
904.45	6836.00
904.88	6777.00
905.32	6719.00
905.75	6743.00
906.18	6630.00
906.62	6677.00
907.05	6536.00
907.48	6581.00
907.92	6513.00
908.35	6525.00
908.79	6361.00
909.22	6253.00
909.65	6317.00
910.09	6330.00
910.52	6433.00
910.95	6239.00
911.38	6290.00
911.82	6127.00
912.25	6243.00
912.68	6323.00
913.12	6331.00
913.55	6294.00
913.98	6330.00
914.42	6498.00
914.85	6609.00
915.28	6439.00
915.72	6385.00
916.15	6341.00
916.58	6380.00
917.01	6183.00
917.45	6248.00
917.88	6257.00
918.31	6347.00
918.74	6519.00
919.18	6548.00
919.61	6526.00
920.04	6628.00
920.47	6697.00
920.91	6701.00
921.34	6590.00
921.77	6711.00
922.20	6685.00
922.64	6727.00
923.07	6729.00
923.50	6697.00
923.93	6537.00
924.37	6510.00
924.80	6409.00
925.23	6445.00
925.66	6417.00
926.09	6107.00
926.53	6058.00
926.96	5817.00
927.39	5869.00
927.82	5619.00
928.25	5445.00
928.69	5447.00
929.12	5363.00
929.55	5175.00
929.98	5179.00
930.41	4959.00
930.84	4888.00
931.28	4681.00
931.71	4611.00
932.14	4460.00
932.57	4430.00
933.00	4227.00
933.43	4235.00
933.86	4153.00
934.30	4112.00
934.73	4225.00
935.16	4123.00
935.59	4068.00
936.02	4144.00
936.45	4126.00
936.88	4089.00
937.31	4291.00
937.75	4274.00
938.18	4342.00
938.61	4481.00
939.04	4527.00
939.47	4528.00
939.90	4485.00
940.33	4437.00
940.76	4209.00
941.19	4225.00
941.62	4113.00
942.05	4096.00
942.48	3995.00
942.91	3957.00
943.35	4059.00
943.78	4062.00
944.21	3999.00
944.64	4077.00
945.07	4111.00
945.50	4087.00
945.93	4128.00
946.36	4271.00
946.79	4187.00
947.22	4279.00
947.65	4243.00
948.08	4113.00
948.51	4251.00
948.94	4285.00
949.37	4336.00
949.80	4213.00
950.23	4180.00
950.66	4315.00
951.09	4334.00
951.52	4177.00
951.95	4257.00
952.38	4244.00
952.81	4437.00
953.24	4418.00
953.67	4463.00
954.10	4419.00
954.53	4501.00
954.96	4444.00
955.39	4578.00
955.82	4623.00
956.25	4603.00
956.68	4777.00
957.11	4584.00
957.53	4650.00
957.96	4554.00
958.39	4495.00
958.82	4436.00
959.25	4494.00
959.68	4595.00
960.11	4671.00
960.54	4717.00
960.97	4716.00
961.40	4865.00
961.83	4831.00
962.26	4814.00
962.68	5031.00
963.11	5016.00
963.54	5109.00
963.97	5104.00
964.40	5083.00
964.83	5167.00
965.26	5144.00
965.69	5060.00
966.11	5199.00
966.54	5085.00
966.97	5200.00
967.40	5311.00
967.83	5422.00
968.26	5308.00
968.69	5350.00
969.11	5404.00
969.54	5249.00
969.97	5256.00
970.40	5399.00
970.83	5354.00
971.26	5356.00
971.68	5399.00
972.11	5338.00
972.54	5508.00
972.97	5425.00
973.40	5375.00
973.82	5363.00
974.25	5355.00
974.68	5288.00
975.11	5363.00
975.54	5208.00
975.96	5243.00
976.39	5215.00
976.82	5293.00
977.25	5253.00
977.67	5202.00
978.10	5217.00
978.53	5261.00
978.96	5367.00
979.38	5428.00
979.81	5435.00
980.24	5506.00
980.67	5582.00
981.09	5600.00
981.52	5664.00
981.95	5610.00
982.38	5669.00
982.80	5611.00
983.23	5771.00
983.66	5730.00
984.08	5677.00
984.51	5571.00
984.94	5593.00
985.37	5618.00
985.79	5537.00
986.22	5433.00
986.65	5537.00
987.07	5397.00
987.50	5395.00
987.93	5386.00
988.35	5489.00
988.78	5461.00
989.21	5457.00
989.63	5536.00
990.06	5540.00
990.49	5611.00
990.91	5733.00
991.34	5625.00
991.77	5630.00
992.19	5656.00
992.62	5678.00
993.05	5601.00
993.47	5697.00
993.90	5605.00
994.32	5556.00
994.75	5508.00
995.18	5373.00
995.60	5397.00
996.03	5355.00
996.45	5454.00
996.88	5332.00
997.31	5290.00
997.73	5354.00
998.16	5289.00
998.58	5455.00
999.01	5347.00
999.44	5429.00
999.86	5521.00
1000.29	5391.00
1000.71	5518.00
1001.14	5557.00
1001.56	5429.00
1001.99	5499.00
1002.41	5373.00
1002.84	5407.00
1003.27	5272.00
1003.69	5333.00
1004.12	5251.00
1004.54	5198.00
1004.97	5153.00
1005.39	5072.00
1005.82	5155.00
1006.24	5129.00
1006.67	5066.00
1007.09	5043.00
1007.52	5048.00
1007.94	5075.00
1008.37	5279.00
1008.79	5155.00
1009.22	5145.00
1009.64	5154.00
1010.07	5179.00
1010.49	5184.00
1010.92	5160.00
1011.34	5198.00
1011.77	5144.00
1012.19	5116.00
1012.62	5118.00
1013.04	5012.00
1013.46	5145.00
1013.89	4936.00
1014.31	4990.00
1014.74	4857.00
1015.16	4863.00
1015.59	4841.00
1016.01	4877.00
1016.44	4885.00
1016.86	5727.00
1017.28	4853.00
1017.71	4840.00
1018.13	5028.00
1018.56	5017.00
1018.98	5020.00
1019.40	4983.00
1019.83	5013.00
1020.25	5044.00
1020.68	5050.00
1021.10	5060.00
1021.52	5065.00
1021.95	5302.00
1022.37	5179.00
1022.79	5138.00
1023.22	5069.00
1023.64	5063.00
1024.07	5029.00
1024.49	5007.00
1024.91	4855.00
1025.34	4889.00
1025.76	4997.00
1026.18	4947.00
1026.61	4867.00
1027.03	4839.00
1027.45	4837.00
1027.88	4806.00
1028.30	4965.00
1028.72	4875.00
1029.15	4940.00
1029.57	4930.00
1029.99	5013.00
1030.41	4852.00
1030.84	4929.00
1031.26	4910.00
1031.68	4892.00
1032.11	4856.00
1032.53	4790.00
1032.95	4761.00
1033.37	4829.00
1033.80	4824.00
1034.22	4689.00
1034.64	4815.00
1035.06	4655.00
1035.49	4631.00
1035.91	4658.00
1036.33	4559.00
1036.75	4649.00
1037.18	4625.00
1037.60	4617.00
1038.02	4624.00
1038.44	4616.00
1038.87	4602.00
1039.29	4631.00
1039.71	4561.00
1040.13	4578.00
1040.55	4623.00
1040.98	4687.00
1041.40	4657.00
1041.82	4605.00
1042.24	4569.00
1042.66	4602.00
1043.09	4441.00
1043.51	4471.00
1043.93	4419.00
1044.35	4394.00
1044.77	4415.00
1045.20	4445.00
1045.62	4303.00
1046.04	4337.00
1046.46	4355.00
1046.88	4276.00
1047.30	4332.00
1047.72	4338.00
1048.15	4325.00
1048.57	4287.00
1048.99	4249.00
1049.41	4280.00
1049.83	4295.00
1050.25	4302.00
1050.67	4334.00
1051.09	4246.00
1051.52	4266.00
1051.94	4163.00
1052.36	4269.00
1052.78	4192.00
1053.20	4197.00
1053.62	4192.00
1054.04	4205.00
1054.46	4234.00
1054.88	4266.00
1055.30	4209.00
1055.72	4135.00
1056.14	4154.00
1056.57	4250.00
1056.99	4029.00
1057.41	4131.00
1057.83	4085.00
1058.25	4037.00
1058.67	4021.00
1059.09	3997.00
1059.51	4033.00
1059.93	3991.00
1060.35	4006.00
1060.77	3990.00
1061.19	4065.00
1061.61	4032.00
1062.03	3970.00
1062.45	3935.00
1062.87	4010.00
1063.29	3957.00
1063.71	3940.00
1064.13	3916.00
1064.55	3851.00
1064.97	3959.00
1065.39	3945.00
1065.81	3893.00
1066.23	3921.00
1066.65	3874.00
1067.07	4007.00
1067.49	3907.00
1067.91	3845.00
1068.33	3796.00
1068.75	3873.00
1069.17	3897.00
1069.59	3888.00
1070.00	3799.00
1070.42	3867.00
1070.84	3777.00
1071.26	3793.00
1071.68	3751.00
1072.10	3842.00
1072.52	3797.00
1072.94	3708.00
1073.36	3751.00
1073.78	3822.00
1074.20	3765.00
1074.62	3732.00
1075.03	3723.00
1075.45	3786.00
1075.87	3824.00
1076.29	3757.00
1076.71	3763.00
1077.13	3822.00
1077.55	3677.00
1077.97	3706.00
1078.38	3736.00
1078.80	3741.00
1079.22	3716.00
1079.64	3729.00
1080.06	3669.00
1080.48	3691.00
1080.89	3644.00
1081.31	3660.00
1081.73	3635.00
1082.15	3655.00
1082.57	3691.00
1082.99	3631.00
1083.40	3593.00
1083.82	3669.00
1084.24	3605.00
1084.66	3626.00
1085.08	3617.00
1085.49	3520.00
1085.91	3643.00
1086.33	4893.00
1086.75	3578.00
1087.17	3592.00
1087.58	3591.00
1088.00	3575.00
1088.42	3665.00
1088.84	3601.00
1089.25	3519.00
1089.67	3584.00
1090.09	3572.00
1090.51	3505.00
1090.92	3611.00
1091.34	3557.00
1091.76	3545.00
1092.18	3503.00
1092.59	3516.00
1093.01	3493.00
1093.43	3478.00
1093.84	3478.00
1094.26	3485.00
1094.68	3503.00
1095.10	3415.00
1095.51	3465.00
1095.93	3450.00
1096.35	3489.00
1096.76	3522.00
1097.18	3494.00
1097.60	3476.00
1098.01	3444.00
1098.43	3435.00
1098.85	3427.00
1099.26	3423.00
1099.68	3469.00
1100.10	3410.00
1100.51	3408.00
1100.93	3401.00
1101.35	3377.00
1101.76	3436.00
1102.18	3896.00
1102.60	3478.00
1103.01	3342.00
1103.43	3421.00
1103.84	3367.00
1104.26	3307.00
1104.68	3417.00
1105.09	3300.00
1105.51	3337.00
1105.92	3407.00
1106.34	3323.00
1106.76	3384.00
1107.17	3347.00
1107.59	3399.00
1108.00	3259.00
1108.42	3360.00
1108.83	3289.00
1109.25	3310.00
1109.67	3251.00
1110.08	3279.00
1110.50	3262.00
1110.91	3291.00
1111.33	3276.00
1111.74	3262.00
1112.16	3316.00
1112.57	3315.00
1112.99	3248.00
1113.41	3298.00
1113.82	3252.00
1114.24	3298.00
1114.65	3249.00
1115.07	3152.00
1115.48	3099.00
1115.90	2191.00
1116.31	2207.00
1116.73	2213.00
1117.14	2207.00
>>>>>End Processed Spectral Data<<<<<
