SpectraSuite Data File
++++++++++++++++++++++++++++++++++++
Date: Tue May 29 13:10:31 EEST 2018
User: CanSEE
Dark Spectrum Present: No
Reference Spectrum Present: No
Number of Sampled Component Spectra: 1
Spectrometers: MAYP11278
Integration Time (usec): 230000 (MAYP11278)
Spectra Averaged: 1 (MAYP11278)
Boxcar Smoothing: 0 (MAYP11278)
Correct for Electrical Dark: No (MAYP11278)
Strobe/Lamp Enabled: No (MAYP11278)
Correct for Detector Non-linearity: No (MAYP11278)
Correct for Stray Light: No (MAYP11278)
Number of Pixels in Processed Spectrum: 2068
>>>>>Begin Processed Spectral Data<<<<<
187.82	2334.00
188.30	2236.00
188.78	2209.00
189.26	2204.00
189.73	3208.00
190.21	3302.00
190.69	3421.00
191.17	3387.00
191.64	3419.00
192.12	3411.00
192.60	3392.00
193.07	3383.00
193.55	3413.00
194.03	3409.00
194.51	3423.00
194.98	3398.00
195.46	3443.00
195.94	3425.00
196.42	3419.00
196.89	3496.00
197.37	3425.00
197.85	3377.00
198.32	3392.00
198.80	3373.00
199.28	3433.00
199.76	3455.00
200.23	3391.00
200.71	3425.00
201.19	3417.00
201.66	3454.00
202.14	3414.00
202.62	3375.00
203.09	3417.00
203.57	3391.00
204.05	3473.00
204.53	3486.00
205.00	3391.00
205.48	3447.00
205.96	3454.00
206.43	3421.00
206.91	3449.00
207.39	3520.00
207.86	3417.00
208.34	3442.00
208.82	3413.00
209.29	3466.00
209.77	3448.00
210.25	3426.00
210.72	3413.00
211.20	3433.00
211.68	3443.00
212.15	3368.00
212.63	3505.00
213.11	3455.00
213.58	3416.00
214.06	3538.00
214.53	3453.00
215.01	3473.00
215.49	3458.00
215.96	3489.00
216.44	3457.00
216.92	3460.00
217.39	3411.00
217.87	3449.00
218.35	3457.00
218.82	3353.00
219.30	3387.00
219.77	3415.00
220.25	3406.00
220.73	3498.00
221.20	3426.00
221.68	3484.00
222.15	3387.00
222.63	3478.00
223.11	3411.00
223.58	3450.00
224.06	3450.00
224.53	3389.00
225.01	3429.00
225.49	3415.00
225.96	3404.00
226.44	3411.00
226.91	3485.00
227.39	3435.00
227.87	3463.00
228.34	3525.00
228.82	3464.00
229.29	3442.00
229.77	3435.00
230.24	3421.00
230.72	3457.00
231.20	3515.00
231.67	3436.00
232.15	3455.00
232.62	3413.00
233.10	3467.00
233.57	3436.00
234.05	3635.00
234.53	3419.00
235.00	3403.00
235.48	3416.00
235.95	3456.00
236.43	3533.00
236.90	3524.00
237.38	3405.00
237.85	3463.00
238.33	3438.00
238.80	3450.00
239.28	3450.00
239.75	3408.00
240.23	3478.00
240.71	3467.00
241.18	3413.00
241.66	3422.00
242.13	3504.00
242.61	3483.00
243.08	3369.00
243.56	3408.00
244.03	3507.00
244.51	3493.00
244.98	3447.00
245.46	3484.00
245.93	5195.00
246.41	3376.00
246.88	3449.00
247.36	3462.00
247.83	3431.00
248.31	3467.00
248.78	3395.00
249.26	3474.00
249.73	3513.00
250.21	3456.00
250.68	3517.00
251.16	3456.00
251.63	3539.00
252.10	3488.00
252.58	3411.00
253.05	3473.00
253.53	3449.00
254.00	3422.00
254.48	3433.00
254.95	3468.00
255.43	3481.00
255.90	3445.00
256.38	3479.00
256.85	3460.00
257.33	3508.00
257.80	3609.00
258.27	3464.00
258.75	3426.00
259.22	3449.00
259.70	3455.00
260.17	3519.00
260.65	3445.00
261.12	3416.00
261.59	3485.00
262.07	3438.00
262.54	3466.00
263.02	3451.00
263.49	3383.00
263.97	3455.00
264.44	3502.00
264.91	3476.00
265.39	3440.00
265.86	3484.00
266.34	3477.00
266.81	3460.00
267.28	3449.00
267.76	3441.00
268.23	3425.00
268.71	3372.00
269.18	3381.00
269.65	3391.00
270.13	3448.00
270.60	3505.00
271.08	3466.00
271.55	3459.00
272.02	3433.00
272.50	3434.00
272.97	3399.00
273.44	3468.00
273.92	3533.00
274.39	3490.00
274.87	3475.00
275.34	3436.00
275.81	3429.00
276.29	3426.00
276.76	3417.00
277.23	3350.00
277.71	3369.00
278.18	3350.00
278.65	3546.00
279.13	3353.00
279.60	3434.00
280.07	3700.00
280.55	3624.00
281.02	3754.00
281.50	3537.00
281.97	3563.00
282.44	3486.00
282.91	3519.00
283.39	3545.00
283.86	3468.00
284.33	3498.00
284.81	3542.00
285.28	3505.00
285.75	3483.00
286.23	3487.00
286.70	3423.00
287.17	3522.00
287.65	3527.00
288.12	3467.00
288.59	3504.00
289.07	3399.00
289.54	3573.00
290.01	3424.00
290.48	3505.00
290.96	3453.00
291.43	3487.00
291.90	3537.00
292.38	3444.00
292.85	3559.00
293.32	3417.00
293.79	3513.00
294.27	3438.00
294.74	3415.00
295.21	3511.00
295.69	3495.00
296.16	3537.00
296.63	3543.00
297.10	3462.00
297.58	3504.00
298.05	3512.00
298.52	3433.00
298.99	3502.00
299.47	3447.00
299.94	3475.00
300.41	3433.00
300.88	3528.00
301.36	3525.00
301.83	3527.00
302.30	3447.00
302.77	3537.00
303.25	3523.00
303.72	3440.00
304.19	3453.00
304.66	3443.00
305.13	3489.00
305.61	3513.00
306.08	3463.00
306.55	3464.00
307.02	3448.00
307.49	3438.00
307.97	3469.00
308.44	3485.00
308.91	3495.00
309.38	3543.00
309.86	3537.00
310.33	3495.00
310.80	3541.00
311.27	3469.00
311.74	3560.00
312.21	3488.00
312.69	3581.00
313.16	3445.00
313.63	3501.00
314.10	3498.00
314.57	3486.00
315.05	3459.00
315.52	3534.00
315.99	3511.00
316.46	3505.00
316.93	3510.00
317.40	3504.00
317.88	3593.00
318.35	3496.00
318.82	3468.00
319.29	3468.00
319.76	3528.00
320.23	3540.00
320.70	3549.00
321.18	3518.00
321.65	3422.00
322.12	3472.00
322.59	3581.00
323.06	3480.00
323.53	3612.00
324.00	3422.00
324.48	3523.00
324.95	3482.00
325.42	3451.00
325.89	3512.00
326.36	3485.00
326.83	3563.00
327.30	3577.00
327.77	3515.00
328.24	3491.00
328.72	3499.00
329.19	3532.00
329.66	3481.00
330.13	3506.00
330.60	3548.00
331.07	3567.00
331.54	3646.00
332.01	3479.00
332.48	3576.00
332.95	3527.00
333.43	3520.00
333.90	3559.00
334.37	3526.00
334.84	3561.00
335.31	3706.00
335.78	3478.00
336.25	3536.00
336.72	3536.00
337.19	3514.00
337.66	3510.00
338.13	3501.00
338.60	3580.00
339.07	3539.00
339.54	3444.00
340.01	3471.00
340.49	3469.00
340.96	3528.00
341.43	3569.00
341.90	3464.00
342.37	3500.00
342.84	3561.00
343.31	3487.00
343.78	3492.00
344.25	3500.00
344.72	3491.00
345.19	3530.00
345.66	3547.00
346.13	3492.00
346.60	3504.00
347.07	3568.00
347.54	3502.00
348.01	3543.00
348.48	3533.00
348.95	3449.00
349.42	3506.00
349.89	3558.00
350.36	3513.00
350.83	3466.00
351.30	3543.00
351.77	3569.00
352.24	3524.00
352.71	3498.00
353.18	3507.00
353.65	3567.00
354.12	3494.00
354.59	3557.00
355.06	3528.00
355.53	3587.00
356.00	3487.00
356.47	3581.00
356.94	3471.00
357.41	3656.00
357.88	3569.00
358.35	3466.00
358.82	3492.00
359.28	3489.00
359.75	3488.00
360.22	3581.00
360.69	3625.00
361.16	3553.00
361.63	3490.00
362.10	3543.00
362.57	3516.00
363.04	3523.00
363.51	3639.00
363.98	3550.00
364.45	3471.00
364.92	3530.00
365.39	3528.00
365.86	3506.00
366.32	3557.00
366.79	3503.00
367.26	4405.00
367.73	3549.00
368.20	3493.00
368.67	3578.00
369.14	3466.00
369.61	3563.00
370.08	3505.00
370.55	3491.00
371.02	4173.00
371.48	3567.00
371.95	3509.00
372.42	3471.00
372.89	3515.00
373.36	3532.00
373.83	3472.00
374.30	3483.00
374.77	3560.00
375.23	3430.00
375.70	3593.00
376.17	3508.00
376.64	3514.00
377.11	3515.00
377.58	3547.00
378.05	3537.00
378.51	3491.00
378.98	3519.00
379.45	3498.00
379.92	3508.00
380.39	3629.00
380.86	3554.00
381.33	3567.00
381.79	3566.00
382.26	3434.00
382.73	3539.00
383.20	3514.00
383.67	3535.00
384.14	3502.00
384.60	3709.00
385.07	3525.00
385.54	3479.00
386.01	3539.00
386.48	3575.00
386.94	3492.00
387.41	3433.00
387.88	3547.00
388.35	3551.00
388.82	3538.00
389.28	3523.00
389.75	3550.00
390.22	3492.00
390.69	3517.00
391.16	3545.00
391.62	3576.00
392.09	3524.00
392.56	3481.00
393.03	3504.00
393.50	3619.00
393.96	3509.00
394.43	3580.00
394.90	3491.00
395.37	3523.00
395.83	3771.00
396.30	3457.00
396.77	3551.00
397.24	3534.00
397.70	3460.00
398.17	3552.00
398.64	3525.00
399.11	3505.00
399.57	3564.00
400.04	3506.00
400.51	3526.00
400.98	3498.00
401.44	3556.00
401.91	3561.00
402.38	3531.00
402.84	3475.00
403.31	3607.00
403.78	3513.00
404.25	3563.00
404.71	3576.00
405.18	3547.00
405.65	3490.00
406.12	3585.00
406.58	3517.00
407.05	3650.00
407.52	3557.00
407.98	4029.00
408.45	3565.00
408.92	3493.00
409.38	3589.00
409.85	3531.00
410.32	3565.00
410.78	3528.00
411.25	3598.00
411.72	3550.00
412.18	3454.00
412.65	3565.00
413.12	3548.00
413.59	3604.00
414.05	3529.00
414.52	3685.00
414.98	3511.00
415.45	3625.00
415.92	3543.00
416.38	3545.00
416.85	3619.00
417.32	3560.00
417.78	3584.00
418.25	3519.00
418.72	3538.00
419.18	3625.00
419.65	3537.00
420.12	3589.00
420.58	3551.00
421.05	3598.00
421.51	3563.00
421.98	3598.00
422.45	3539.00
422.91	3595.00
423.38	3594.00
423.85	3586.00
424.31	3587.00
424.78	3618.00
425.24	3607.00
425.71	3663.00
426.18	3523.00
426.64	3641.00
427.11	3607.00
427.57	3655.00
428.04	3544.00
428.51	3629.00
428.97	3576.00
429.44	3603.00
429.90	3589.00
430.37	3705.00
430.83	3507.00
431.30	3577.00
431.77	3663.00
432.23	3691.00
432.70	3618.00
433.16	3591.00
433.63	3595.00
434.09	3621.00
434.56	3672.00
435.03	3587.00
435.49	3667.00
435.96	3679.00
436.42	3602.00
436.89	3663.00
437.35	3611.00
437.82	3659.00
438.28	3619.00
438.75	3644.00
439.21	3796.00
439.68	3712.00
440.14	3703.00
440.61	3714.00
441.07	3644.00
441.54	3652.00
442.00	3789.00
442.47	3634.00
442.94	3673.00
443.40	3677.00
443.87	3595.00
444.33	3741.00
444.80	3724.00
445.26	3651.00
445.73	3670.00
446.19	3705.00
446.65	3680.00
447.12	3720.00
447.58	3625.00
448.05	3655.00
448.51	3708.00
448.98	3750.00
449.44	3681.00
449.91	3635.00
450.37	3702.00
450.84	3691.00
451.30	3728.00
451.77	3719.00
452.23	3657.00
452.70	3735.00
453.16	3714.00
453.62	3718.00
454.09	3693.00
454.55	3733.00
455.02	3670.00
455.48	3723.00
455.95	3760.00
456.41	3659.00
456.88	3752.00
457.34	3683.00
457.80	3710.00
458.27	3588.00
458.73	3683.00
459.20	3731.00
459.66	3734.00
460.13	3650.00
460.59	3641.00
461.05	3762.00
461.52	3722.00
461.98	3639.00
462.45	3610.00
462.91	3705.00
463.37	3591.00
463.84	3651.00
464.30	3635.00
464.76	3614.00
465.23	3617.00
465.69	3678.00
466.16	3600.00
466.62	3631.00
467.08	3620.00
467.55	3615.00
468.01	3609.00
468.48	3633.00
468.94	3616.00
469.40	3559.00
469.87	3601.00
470.33	3591.00
470.79	3588.00
471.26	3554.00
471.72	3581.00
472.18	3561.00
472.65	3588.00
473.11	3652.00
473.57	3616.00
474.04	3572.00
474.50	3567.00
474.96	3545.00
475.43	3597.00
475.89	3571.00
476.35	3593.00
476.82	3542.00
477.28	3617.00
477.74	3620.00
478.21	3581.00
478.67	3649.00
479.13	3543.00
479.59	3652.00
480.06	3597.00
480.52	3573.00
480.98	3568.00
481.45	3553.00
481.91	3588.00
482.37	3549.00
482.84	3571.00
483.30	3508.00
483.76	3558.00
484.22	3646.00
484.69	3563.00
485.15	3540.00
485.61	3463.00
486.07	3526.00
486.54	3479.00
487.00	3549.00
487.46	3467.00
487.92	3539.00
488.39	3529.00
488.85	3554.00
489.31	3567.00
489.77	3600.00
490.24	3531.00
490.70	3551.00
491.16	3522.00
491.62	3563.00
492.09	3490.00
492.55	3612.00
493.01	3586.00
493.47	3606.00
493.94	3569.00
494.40	3562.00
494.86	3568.00
495.32	3568.00
495.78	3612.00
496.25	3583.00
496.71	3588.00
497.17	3661.00
497.63	3645.00
498.09	3550.00
498.56	3609.00
499.02	3613.00
499.48	3756.00
499.94	3605.00
500.40	3601.00
500.87	3603.00
501.33	3601.00
501.79	3637.00
502.25	3656.00
502.71	3965.00
503.17	3635.00
503.64	3673.00
504.10	3634.00
504.56	3669.00
505.02	3687.00
505.48	3683.00
505.94	3740.00
506.40	3784.00
506.87	3745.00
507.33	3788.00
507.79	3751.00
508.25	3750.00
508.71	3743.00
509.17	3721.00
509.63	3796.00
510.10	3843.00
510.56	3837.00
511.02	3953.00
511.48	3956.00
511.94	3865.00
512.40	3845.00
512.86	3899.00
513.32	3965.00
513.78	3887.00
514.25	4040.00
514.71	4665.00
515.17	3950.00
515.63	4053.00
516.09	4082.00
516.55	4031.00
517.01	4169.00
517.47	4101.00
517.93	4124.00
518.39	4300.00
518.85	4194.00
519.32	4197.00
519.78	4260.00
520.24	4281.00
520.70	4351.00
521.16	4419.00
521.62	4451.00
522.08	4482.00
522.54	4444.00
523.00	4587.00
523.46	4643.00
523.92	4578.00
524.38	4701.00
524.84	4621.00
525.30	4742.00
525.76	4714.00
526.22	4603.00
526.68	4631.00
527.14	4689.00
527.60	4787.00
528.06	4860.00
528.52	4901.00
528.98	4977.00
529.44	4966.00
529.90	4974.00
530.36	5084.00
530.82	5066.00
531.28	5145.00
531.74	5028.00
532.20	5096.00
532.66	4992.00
533.12	5112.00
533.58	5090.00
534.04	5026.00
534.50	5157.00
534.96	5172.00
535.42	5289.00
535.88	5169.00
536.34	5271.00
536.80	5162.00
537.26	5377.00
537.72	5270.00
538.18	5262.00
538.64	5394.00
539.10	5289.00
539.56	5563.00
540.02	5160.00
540.48	5353.00
540.94	5317.00
541.40	5262.00
541.86	5355.00
542.32	5335.00
542.78	5361.00
543.24	5490.00
543.69	5379.00
544.15	5569.00
544.61	5444.00
545.07	5429.00
545.53	5402.00
545.99	5529.00
546.45	5356.00
546.91	5451.00
547.37	5415.00
547.83	5509.00
548.29	5477.00
548.74	5447.00
549.20	5571.00
549.66	5669.00
550.12	5548.00
550.58	5498.00
551.04	5585.00
551.50	5563.00
551.96	5741.00
552.42	5539.00
552.87	5465.00
553.33	5614.00
553.79	5566.00
554.25	5555.00
554.71	5596.00
555.17	5571.00
555.63	5660.00
556.08	5553.00
556.54	5603.00
557.00	5441.00
557.46	5505.00
557.92	5606.00
558.38	5449.00
558.83	5397.00
559.29	5429.00
559.75	5382.00
560.21	5449.00
560.67	5535.00
561.13	5401.00
561.58	5412.00
562.04	5392.00
562.50	5429.00
562.96	5436.00
563.42	5425.00
563.87	5347.00
564.33	5428.00
564.79	5294.00
565.25	5292.00
565.71	5269.00
566.16	5342.00
566.62	5229.00
567.08	5247.00
567.54	5243.00
568.00	5218.00
568.45	5161.00
568.91	5133.00
569.37	5136.00
569.83	5065.00
570.28	5009.00
570.74	5058.00
571.20	5016.00
571.66	4992.00
572.11	5054.00
572.57	5032.00
573.03	4939.00
573.49	4960.00
573.94	4951.00
574.40	4959.00
574.86	4928.00
575.32	4802.00
575.77	4870.00
576.23	4739.00
576.69	4931.00
577.15	4783.00
577.60	4802.00
578.06	4699.00
578.52	4820.00
578.97	4735.00
579.43	4747.00
579.89	4711.00
580.34	4734.00
580.80	4729.00
581.26	4695.00
581.72	4707.00
582.17	4775.00
582.63	4690.00
583.09	4690.00
583.54	4695.00
584.00	4721.00
584.46	4667.00
584.91	4616.00
585.37	4759.00
585.83	4566.00
586.28	4624.00
586.74	4639.00
587.20	4599.00
587.65	4680.00
588.11	4519.00
588.57	4509.00
589.02	4384.00
589.48	4381.00
589.94	4496.00
590.39	4567.00
590.85	4480.00
591.30	4495.00
591.76	4492.00
592.22	4493.00
592.67	4550.00
593.13	4469.00
593.59	4563.00
594.04	4457.00
594.50	4463.00
594.95	4531.00
595.41	4423.00
595.87	4431.00
596.32	4543.00
596.78	4479.00
597.23	4531.00
597.69	4470.00
598.15	4399.00
598.60	4443.00
599.06	4513.00
599.51	4414.00
599.97	4456.00
600.43	4469.00
600.88	4448.00
601.34	4429.00
601.79	4353.00
602.25	4549.00
602.70	4442.00
603.16	4420.00
603.61	4369.00
604.07	4375.00
604.53	4458.00
604.98	4373.00
605.44	4447.00
605.89	4379.00
606.35	4367.00
606.80	4437.00
607.26	4427.00
607.71	4383.00
608.17	4356.00
608.62	4368.00
609.08	4426.00
609.53	4307.00
609.99	4280.00
610.44	4299.00
610.90	4333.00
611.35	4223.00
611.81	4343.00
612.26	4305.00
612.72	4277.00
613.17	4369.00
613.63	4201.00
614.08	4142.00
614.54	4163.00
614.99	4168.00
615.45	4194.00
615.90	4160.00
616.36	4100.00
616.81	4169.00
617.27	4205.00
617.72	4246.00
618.18	4151.00
618.63	4105.00
619.09	4134.00
619.54	4207.00
619.99	4157.00
620.45	4181.00
620.90	4167.00
621.36	4119.00
621.81	4145.00
622.27	4186.00
622.72	4165.00
623.18	4104.00
623.63	4056.00
624.08	4096.00
624.54	4050.00
624.99	4114.00
625.45	4117.00
625.90	4048.00
626.35	4093.00
626.81	4100.00
627.26	4049.00
627.72	4077.00
628.17	4063.00
628.62	3977.00
629.08	4108.00
629.53	4054.00
629.99	4037.00
630.44	4093.00
630.89	4099.00
631.35	4117.00
631.80	4108.00
632.26	4106.00
632.71	4056.00
633.16	4039.00
633.62	4035.00
634.07	4009.00
634.52	4077.00
634.98	4099.00
635.43	4043.00
635.88	3992.00
636.34	4081.00
636.79	3978.00
637.24	4001.00
637.70	4049.00
638.15	4089.00
638.60	4023.00
639.06	3971.00
639.51	4022.00
639.96	3931.00
640.42	3994.00
640.87	3959.00
641.32	3899.00
641.78	3889.00
642.23	3908.00
642.68	3877.00
643.14	3891.00
643.59	3914.00
644.04	3847.00
644.49	3827.00
644.95	3856.00
645.40	3859.00
645.85	3869.00
646.31	3805.00
646.76	3839.00
647.21	3801.00
647.66	3820.00
648.12	3812.00
648.57	3715.00
649.02	3842.00
649.47	3758.00
649.93	3967.00
650.38	3723.00
650.83	3741.00
651.28	3743.00
651.74	3771.00
652.19	3675.00
652.64	3743.00
653.09	3719.00
653.55	3694.00
654.00	3723.00
654.45	3751.00
654.90	3708.00
655.35	3613.00
655.81	3685.00
656.26	3575.00
656.71	3640.00
657.16	3679.00
657.62	3715.00
658.07	3677.00
658.52	3705.00
658.97	3639.00
659.42	3880.00
659.88	3623.00
660.33	3745.00
660.78	3646.00
661.23	3589.00
661.68	3598.00
662.13	3616.00
662.59	3540.00
663.04	3636.00
663.49	3613.00
663.94	3608.00
664.39	3582.00
664.84	3550.00
665.30	3613.00
665.75	3536.00
666.20	3579.00
666.65	3619.00
667.10	3694.00
667.55	3627.00
668.00	3494.00
668.46	3565.00
668.91	3527.00
669.36	3672.00
669.81	3449.00
670.26	3457.00
670.71	3573.00
671.16	3560.00
671.61	3613.00
672.06	3624.00
672.52	3507.00
672.97	3529.00
673.42	3602.00
673.87	3639.00
674.32	3520.00
674.77	3523.00
675.22	3412.00
675.67	3474.00
676.12	3537.00
676.57	3503.00
677.02	3506.00
677.47	3509.00
677.93	3604.00
678.38	3445.00
678.83	3533.00
679.28	3546.00
679.73	3477.00
680.18	3488.00
680.63	3484.00
681.08	3421.00
681.53	3443.00
681.98	3539.00
682.43	3539.00
682.88	3562.00
683.33	3568.00
683.78	3539.00
684.23	3616.00
684.68	3567.00
685.13	3569.00
685.58	3619.00
686.03	3549.00
686.48	3519.00
686.93	3532.00
687.38	3505.00
687.83	3579.00
688.28	3604.00
688.73	3790.00
689.18	3696.00
689.63	3621.00
690.08	3707.00
690.53	3690.00
690.98	3726.00
691.43	3835.00
691.88	3846.00
692.33	3911.00
692.78	3893.00
693.23	4044.00
693.68	4055.00
694.13	4121.00
694.58	4144.00
695.03	4401.00
695.48	4296.00
695.93	4340.00
696.38	4522.00
696.83	4514.00
697.28	4553.00
697.72	4629.00
698.17	4660.00
698.62	4774.00
699.07	4883.00
699.52	4967.00
699.97	4972.00
700.42	5090.00
700.87	5144.00
701.32	5439.00
701.77	5282.00
702.22	5376.00
702.67	5403.00
703.11	5565.00
703.56	5626.00
704.01	5777.00
704.46	5850.00
704.91	6048.00
705.36	6076.00
705.81	6186.00
706.26	6102.00
706.70	6233.00
707.15	6384.00
707.60	6488.00
708.05	6607.00
708.50	6704.00
708.95	6712.00
709.40	6762.00
709.84	6897.00
710.29	6929.00
710.74	7020.00
711.19	7091.00
711.64	7176.00
712.09	7290.00
712.53	7289.00
712.98	7466.00
713.43	7441.00
713.88	7560.00
714.33	7676.00
714.78	7713.00
715.22	7742.00
715.67	7724.00
716.12	7695.00
716.57	7548.00
717.02	7290.00
717.46	7224.00
717.91	7242.00
718.36	7239.00
718.81	7149.00
719.26	7116.00
719.70	7285.00
720.15	7290.00
720.60	7690.00
721.05	8166.00
721.49	8236.00
721.94	8567.00
722.39	8483.00
722.84	8313.00
723.28	8131.00
723.73	8100.00
724.18	8086.00
724.63	8256.00
725.07	8236.00
725.52	8442.00
725.97	8516.00
726.42	8647.00
726.86	8803.00
727.31	8688.00
727.76	8760.00
728.21	8879.00
728.65	8935.00
729.10	8941.00
729.55	9068.00
729.99	9220.00
730.44	9194.00
730.89	9278.00
731.33	9548.00
731.78	9718.00
732.23	9988.00
732.68	10051.00
733.12	10315.00
733.57	10377.00
734.02	10537.00
734.46	10682.00
734.91	10659.00
735.36	10686.00
735.80	10869.00
736.25	10815.00
736.70	10916.00
737.14	11149.00
737.59	11158.00
738.04	11161.00
738.48	10971.00
738.93	11033.00
739.37	11209.00
739.82	11491.00
740.27	11444.00
740.71	11367.00
741.16	11471.00
741.61	11553.00
742.05	11514.00
742.50	11555.00
742.94	11694.00
743.39	11719.00
743.84	11853.00
744.28	11831.00
744.73	11884.00
745.18	11939.00
745.62	12037.00
746.07	12051.00
746.51	11898.00
746.96	11985.00
747.40	11899.00
747.85	11888.00
748.30	11988.00
748.74	11995.00
749.19	11900.00
749.63	12141.00
750.08	11914.00
750.52	11986.00
750.97	12037.00
751.42	11937.00
751.86	12068.00
752.31	11967.00
752.75	12014.00
753.20	11939.00
753.64	11963.00
754.09	12044.00
754.53	12025.00
754.98	11913.00
755.42	11991.00
755.87	11950.00
756.31	12026.00
756.76	11897.00
757.20	11837.00
757.65	11739.00
758.09	11615.00
758.54	11299.00
758.98	10252.00
759.43	8534.00
759.87	6739.00
760.32	5754.00
760.76	5699.00
761.21	6495.00
761.65	7419.00
762.10	7552.00
762.54	7228.00
762.99	7025.00
763.43	7193.00
763.88	7462.00
764.32	7910.00
764.77	8354.00
765.21	9008.00
765.66	9299.00
766.10	9708.00
766.54	10095.00
766.99	10472.00
767.43	10782.00
767.88	11000.00
768.32	11265.00
768.77	11243.00
769.21	11610.00
769.66	11619.00
770.10	11670.00
770.54	11802.00
770.99	11833.00
771.43	11850.00
771.88	11785.00
772.32	11788.00
772.76	11634.00
773.21	11836.00
773.65	11627.00
774.10	11602.00
774.54	11693.00
774.98	11691.00
775.43	11790.00
775.87	11860.00
776.31	11850.00
776.76	11901.00
777.20	11868.00
777.65	11842.00
778.09	11781.00
778.53	11656.00
778.98	11607.00
779.42	11756.00
779.86	11649.00
780.31	11629.00
780.75	11719.00
781.19	11708.00
781.64	11757.00
782.08	11920.00
782.52	11692.00
782.97	11608.00
783.41	11484.00
783.85	11470.00
784.30	11423.00
784.74	11386.00
785.18	11291.00
785.63	11431.00
786.07	11463.00
786.51	11459.00
786.95	11553.00
787.40	11319.00
787.84	11392.00
788.28	11294.00
788.73	11254.00
789.17	11212.00
789.61	10982.00
790.05	11022.00
790.50	10974.00
790.94	10891.00
791.38	10942.00
791.82	10902.00
792.27	10931.00
792.71	10941.00
793.15	11204.00
793.59	11045.00
794.04	10940.00
794.48	10921.00
794.92	10761.00
795.36	10810.00
795.81	10686.00
796.25	10635.00
796.69	10724.00
797.13	10838.00
797.57	10792.00
798.02	10922.00
798.46	10905.00
798.90	10877.00
799.34	10765.00
799.79	10778.00
800.23	10520.00
800.67	10433.00
801.11	10560.00
801.55	10463.00
801.99	10404.00
802.44	10417.00
802.88	10555.00
803.32	10636.00
803.76	10675.00
804.20	10621.00
804.64	10559.00
805.09	10753.00
805.53	10569.00
805.97	10566.00
806.41	10502.00
806.85	10436.00
807.29	10238.00
807.74	10291.00
808.18	10166.00
808.62	10244.00
809.06	10216.00
809.50	10050.00
809.94	10268.00
810.38	10196.00
810.82	10284.00
811.27	10343.00
811.71	9980.00
812.15	9903.00
812.59	9621.00
813.03	9567.00
813.47	9354.00
813.91	9001.00
814.35	8919.00
814.79	8920.00
815.23	8912.00
815.67	8735.00
816.12	8691.00
816.56	8725.00
817.00	8759.00
817.44	8950.00
817.88	8939.00
818.32	8719.00
818.76	8837.00
819.20	8777.00
819.64	8867.00
820.08	8896.00
820.52	9055.00
820.96	9265.00
821.40	9091.00
821.84	8937.00
822.28	8501.00
822.72	8468.00
823.16	8403.00
823.60	8759.00
824.04	9241.00
824.48	9339.00
824.92	9392.00
825.36	9315.00
825.80	9237.00
826.24	9168.00
826.68	9052.00
827.12	9017.00
827.56	8959.00
828.00	8908.00
828.44	8901.00
828.88	9115.00
829.32	9179.00
829.76	9150.00
830.20	9384.00
830.64	9196.00
831.08	9161.00
831.52	9197.00
831.96	8925.00
832.40	8874.00
832.84	8933.00
833.28	8927.00
833.72	9246.00
834.16	9315.00
834.60	9406.00
835.04	9520.00
835.48	9677.00
835.91	9535.00
836.35	9431.00
836.79	9471.00
837.23	9456.00
837.67	9325.00
838.11	9328.00
838.55	9382.00
838.99	9291.00
839.43	9476.00
839.87	9616.00
840.30	9583.00
840.74	9726.00
841.18	9677.00
841.62	9774.00
842.06	9743.00
842.50	9691.00
842.94	9709.00
843.38	9521.00
843.81	9447.00
844.25	9337.00
844.69	9273.00
845.13	9265.00
845.57	9313.00
846.01	9423.00
846.45	9405.00
846.88	9566.00
847.32	9665.00
847.76	9683.00
848.20	9667.00
848.64	9613.00
849.08	9583.00
849.51	9569.00
849.95	9323.00
850.39	9303.00
850.83	9516.00
851.27	9352.00
851.70	9171.00
852.14	9236.00
852.58	9110.00
853.02	8943.00
853.46	8607.00
853.89	8615.00
854.33	8695.00
854.77	8916.00
855.21	9299.00
855.65	9578.00
856.08	9720.00
856.52	9616.00
856.96	9605.00
857.40	9395.00
857.83	9287.00
858.27	9209.00
858.71	8991.00
859.15	9020.00
859.58	9203.00
860.02	9249.00
860.46	9323.00
860.89	9487.00
861.33	9522.00
861.77	9622.00
862.21	9579.00
862.64	9607.00
863.08	9589.00
863.52	9563.00
863.95	9376.00
864.39	9322.00
864.83	9023.00
865.27	8686.00
865.70	8613.00
866.14	8478.00
866.58	8528.00
867.01	8890.00
867.45	9103.00
867.89	9225.00
868.32	9321.00
868.76	9414.00
869.20	9391.00
869.63	9548.00
870.07	9454.00
870.51	9175.00
870.94	9077.00
871.38	8916.00
871.82	8808.00
872.25	8745.00
872.69	8742.00
873.13	8899.00
873.56	9015.00
874.00	8990.00
874.43	9058.00
874.87	9123.00
875.31	9286.00
875.74	9186.00
876.18	9379.00
876.61	9311.00
877.05	9231.00
877.49	9202.00
877.92	9051.00
878.36	9017.00
878.79	8839.00
879.23	8807.00
879.67	8609.00
880.10	8568.00
880.54	8553.00
880.97	8609.00
881.41	8777.00
881.84	8977.00
882.28	9138.00
882.72	9132.00
883.15	9311.00
883.59	9303.00
884.02	9346.00
884.46	9182.00
884.89	9102.00
885.33	8979.00
885.76	8709.00
886.20	8695.00
886.63	8671.00
887.07	8385.00
887.50	8479.00
887.94	8519.00
888.37	8607.00
888.81	8908.00
889.24	8711.00
889.68	8961.00
890.11	8865.00
890.55	8932.00
890.98	9077.00
891.42	9010.00
891.85	8950.00
892.29	8902.00
892.72	8680.00
893.16	8495.00
893.59	8421.00
894.03	8235.00
894.46	8049.00
894.90	7762.00
895.33	7560.00
895.77	7583.00
896.20	7542.00
896.63	7519.00
897.07	7521.00
897.50	7542.00
897.94	7621.00
898.37	7862.00
898.81	7474.00
899.24	7340.00
899.68	7685.00
900.11	7586.00
900.54	7453.00
900.98	7298.00
901.41	7377.00
901.85	7496.00
902.28	7371.00
902.71	7440.00
903.15	7690.00
903.58	7796.00
904.02	7841.00
904.45	7775.00
904.88	7750.00
905.32	7684.00
905.75	7756.00
906.18	7573.00
906.62	7601.00
907.05	7451.00
907.48	7459.00
907.92	7356.00
908.35	7392.00
908.79	7259.00
909.22	7217.00
909.65	7213.00
910.09	7251.00
910.52	7260.00
910.95	7087.00
911.38	7166.00
911.82	6971.00
912.25	7088.00
912.68	7162.00
913.12	7102.00
913.55	7150.00
913.98	7279.00
914.42	7537.00
914.85	7537.00
915.28	7246.00
915.72	7320.00
916.15	7145.00
916.58	7222.00
917.01	7028.00
917.45	7039.00
917.88	7099.00
918.31	7240.00
918.74	7353.00
919.18	7449.00
919.61	7417.00
920.04	7515.00
920.47	7633.00
920.91	7560.00
921.34	7570.00
921.77	7544.00
922.20	7650.00
922.64	7703.00
923.07	7651.00
923.50	7601.00
923.93	7426.00
924.37	7431.00
924.80	7273.00
925.23	7235.00
925.66	7190.00
926.09	6819.00
926.53	6797.00
926.96	6600.00
927.39	6570.00
927.82	6272.00
928.25	6062.00
928.69	6090.00
929.12	5901.00
929.55	5766.00
929.98	5679.00
930.41	5455.00
930.84	5380.00
931.28	5106.00
931.71	4958.00
932.14	4721.00
932.57	4808.00
933.00	4534.00
933.43	4521.00
933.86	4401.00
934.30	4298.00
934.73	4548.00
935.16	4373.00
935.59	4257.00
936.02	4371.00
936.45	4361.00
936.88	4323.00
937.31	4554.00
937.75	4545.00
938.18	4638.00
938.61	4806.00
939.04	4872.00
939.47	4858.00
939.90	4748.00
940.33	4700.00
940.76	4484.00
941.19	4475.00
941.62	4345.00
942.05	4347.00
942.48	4191.00
942.91	4155.00
943.35	4267.00
943.78	4145.00
944.21	4153.00
944.64	4316.00
945.07	4307.00
945.50	4253.00
945.93	4316.00
946.36	4435.00
946.79	4403.00
947.22	4559.00
947.65	4421.00
948.08	4361.00
948.51	4480.00
948.94	4559.00
949.37	4607.00
949.80	4450.00
950.23	4439.00
950.66	4559.00
951.09	4533.00
951.52	4382.00
951.95	4515.00
952.38	4482.00
952.81	4741.00
953.24	4675.00
953.67	4748.00
954.10	4703.00
954.53	4806.00
954.96	4799.00
955.39	4886.00
955.82	4931.00
956.25	4965.00
956.68	5056.00
957.11	4939.00
957.53	4936.00
957.96	4827.00
958.39	4845.00
958.82	4757.00
959.25	4843.00
959.68	4909.00
960.11	4953.00
960.54	4994.00
960.97	5178.00
961.40	5285.00
961.83	5213.00
962.26	5193.00
962.68	5403.00
963.11	5502.00
963.54	5469.00
963.97	5505.00
964.40	5485.00
964.83	5639.00
965.26	5621.00
965.69	5602.00
966.11	5580.00
966.54	5592.00
966.97	5685.00
967.40	5725.00
967.83	5947.00
968.26	5761.00
968.69	5742.00
969.11	5838.00
969.54	5780.00
969.97	5833.00
970.40	5841.00
970.83	5863.00
971.26	5891.00
971.68	5846.00
972.11	5869.00
972.54	5969.00
972.97	6003.00
973.40	5877.00
973.82	5937.00
974.25	5883.00
974.68	5764.00
975.11	5765.00
975.54	5712.00
975.96	5656.00
976.39	5625.00
976.82	5725.00
977.25	5671.00
977.67	5671.00
978.10	5682.00
978.53	5715.00
978.96	5845.00
979.38	5889.00
979.81	5857.00
980.24	6060.00
980.67	6116.00
981.09	6115.00
981.52	6139.00
981.95	6122.00
982.38	6178.00
982.80	6220.00
983.23	6264.00
983.66	6321.00
984.08	6210.00
984.51	6185.00
984.94	6203.00
985.37	6139.00
985.79	6065.00
986.22	5945.00
986.65	5939.00
987.07	5932.00
987.50	5927.00
987.93	5905.00
988.35	5969.00
988.78	5931.00
989.21	5980.00
989.63	6113.00
990.06	6117.00
990.49	6209.00
990.91	6267.00
991.34	6283.00
991.77	6210.00
992.19	6262.00
992.62	6205.00
993.05	6173.00
993.47	6199.00
993.90	6248.00
994.32	6139.00
994.75	6085.00
995.18	5892.00
995.60	5965.00
996.03	5848.00
996.45	5895.00
996.88	5908.00
997.31	5813.00
997.73	5885.00
998.16	5839.00
998.58	5859.00
999.01	5861.00
999.44	5926.00
999.86	6008.00
1000.29	5980.00
1000.71	6103.00
1001.14	6035.00
1001.56	6036.00
1001.99	6022.00
1002.41	5928.00
1002.84	5894.00
1003.27	5774.00
1003.69	5750.00
1004.12	5658.00
1004.54	5664.00
1004.97	5558.00
1005.39	5523.00
1005.82	5541.00
1006.24	5510.00
1006.67	5455.00
1007.09	5514.00
1007.52	5578.00
1007.94	5527.00
1008.37	5711.00
1008.79	5607.00
1009.22	5606.00
1009.64	5583.00
1010.07	5543.00
1010.49	5601.00
1010.92	5601.00
1011.34	5649.00
1011.77	5619.00
1012.19	5584.00
1012.62	5586.00
1013.04	5493.00
1013.46	5552.00
1013.89	5405.00
1014.31	5377.00
1014.74	5336.00
1015.16	5265.00
1015.59	5231.00
1016.01	5262.00
1016.44	5267.00
1016.86	6120.00
1017.28	5281.00
1017.71	5272.00
1018.13	5550.00
1018.56	5415.00
1018.98	5463.00
1019.40	5371.00
1019.83	5481.00
1020.25	5471.00
1020.68	5470.00
1021.10	5603.00
1021.52	5521.00
1021.95	5670.00
1022.37	5544.00
1022.79	5554.00
1023.22	5522.00
1023.64	5455.00
1024.07	5444.00
1024.49	5475.00
1024.91	5332.00
1025.34	5305.00
1025.76	5425.00
1026.18	5249.00
1026.61	5309.00
1027.03	5269.00
1027.45	5268.00
1027.88	5271.00
1028.30	5330.00
1028.72	5307.00
1029.15	5338.00
1029.57	5313.00
1029.99	5423.00
1030.41	5344.00
1030.84	5279.00
1031.26	5369.00
1031.68	5316.00
1032.11	5344.00
1032.53	5217.00
1032.95	5171.00
1033.37	5213.00
1033.80	5207.00
1034.22	5090.00
1034.64	5205.00
1035.06	5063.00
1035.49	4975.00
1035.91	5014.00
1036.33	4881.00
1036.75	4999.00
1037.18	4970.00
1037.60	4951.00
1038.02	4988.00
1038.44	5052.00
1038.87	4902.00
1039.29	4945.00
1039.71	4967.00
1040.13	4929.00
1040.55	4991.00
1040.98	5029.00
1041.40	4961.00
1041.82	4905.00
1042.24	4843.00
1042.66	4910.00
1043.09	4781.00
1043.51	4793.00
1043.93	4763.00
1044.35	4706.00
1044.77	4759.00
1045.20	4679.00
1045.62	4638.00
1046.04	4607.00
1046.46	4616.00
1046.88	4557.00
1047.30	4630.00
1047.72	4611.00
1048.15	4556.00
1048.57	4550.00
1048.99	4569.00
1049.41	4547.00
1049.83	4563.00
1050.25	4641.00
1050.67	4581.00
1051.09	4534.00
1051.52	4542.00
1051.94	4400.00
1052.36	4529.00
1052.78	4397.00
1053.20	4472.00
1053.62	4461.00
1054.04	4445.00
1054.46	4473.00
1054.88	4481.00
1055.30	4467.00
1055.72	4454.00
1056.14	4423.00
1056.57	4537.00
1056.99	4292.00
1057.41	4339.00
1057.83	4297.00
1058.25	4261.00
1058.67	4252.00
1059.09	4163.00
1059.51	4248.00
1059.93	4197.00
1060.35	4197.00
1060.77	4168.00
1061.19	4259.00
1061.61	4208.00
1062.03	4158.00
1062.45	4117.00
1062.87	4172.00
1063.29	4189.00
1063.71	4101.00
1064.13	4094.00
1064.55	4081.00
1064.97	4157.00
1065.39	4109.00
1065.81	4084.00
1066.23	4038.00
1066.65	4079.00
1067.07	4137.00
1067.49	4022.00
1067.91	3978.00
1068.33	3972.00
1068.75	4033.00
1069.17	4006.00
1069.59	4057.00
1070.00	3945.00
1070.42	3993.00
1070.84	3939.00
1071.26	3911.00
1071.68	3877.00
1072.10	3959.00
1072.52	3963.00
1072.94	3915.00
1073.36	3877.00
1073.78	3897.00
1074.20	3898.00
1074.62	3878.00
1075.03	3917.00
1075.45	3879.00
1075.87	3913.00
1076.29	3860.00
1076.71	3893.00
1077.13	3924.00
1077.55	3788.00
1077.97	3835.00
1078.38	3813.00
1078.80	3853.00
1079.22	3889.00
1079.64	3807.00
1080.06	3786.00
1080.48	3811.00
1080.89	3782.00
1081.31	3753.00
1081.73	3774.00
1082.15	3744.00
1082.57	3785.00
1082.99	3753.00
1083.40	3679.00
1083.82	3766.00
1084.24	3671.00
1084.66	3709.00
1085.08	3722.00
1085.49	3640.00
1085.91	3745.00
1086.33	5021.00
1086.75	3723.00
1087.17	3637.00
1087.58	3697.00
1088.00	3681.00
1088.42	3746.00
1088.84	3700.00
1089.25	3641.00
1089.67	3673.00
1090.09	3567.00
1090.51	3621.00
1090.92	3695.00
1091.34	3596.00
1091.76	3626.00
1092.18	3584.00
1092.59	3592.00
1093.01	3587.00
1093.43	3584.00
1093.84	3529.00
1094.26	3544.00
1094.68	3573.00
1095.10	3532.00
1095.51	3512.00
1095.93	3507.00
1096.35	3563.00
1096.76	3562.00
1097.18	3595.00
1097.60	3541.00
1098.01	3538.00
1098.43	3488.00
1098.85	3478.00
1099.26	3433.00
1099.68	3505.00
1100.10	3423.00
1100.51	3475.00
1100.93	3433.00
1101.35	3483.00
1101.76	3439.00
1102.18	3924.00
1102.60	3517.00
1103.01	3355.00
1103.43	3437.00
1103.84	3417.00
1104.26	3399.00
1104.68	3433.00
1105.09	3391.00
1105.51	3393.00
1105.92	3486.00
1106.34	3354.00
1106.76	3396.00
1107.17	3423.00
1107.59	3354.00
1108.00	3354.00
1108.42	3323.00
1108.83	3308.00
1109.25	3305.00
1109.67	3289.00
1110.08	3293.00
1110.50	3276.00
1110.91	3307.00
1111.33	3299.00
1111.74	3264.00
1112.16	3325.00
1112.57	3322.00
1112.99	3259.00
1113.41	3291.00
1113.82	3232.00
1114.24	3292.00
1114.65	3244.00
1115.07	3187.00
1115.48	3070.00
1115.90	2187.00
1116.31	2212.00
1116.73	2207.00
1117.14	2212.00
>>>>>End Processed Spectral Data<<<<<
