SpectraSuite Data File
++++++++++++++++++++++++++++++++++++
Date: Tue May 29 13:10:26 EEST 2018
User: CanSEE
Dark Spectrum Present: No
Reference Spectrum Present: No
Number of Sampled Component Spectra: 1
Spectrometers: MAYP11278
Integration Time (usec): 230000 (MAYP11278)
Spectra Averaged: 1 (MAYP11278)
Boxcar Smoothing: 0 (MAYP11278)
Correct for Electrical Dark: No (MAYP11278)
Strobe/Lamp Enabled: No (MAYP11278)
Correct for Detector Non-linearity: No (MAYP11278)
Correct for Stray Light: No (MAYP11278)
Number of Pixels in Processed Spectrum: 2068
>>>>>Begin Processed Spectral Data<<<<<
187.82	2342.00
188.30	2232.00
188.78	2212.00
189.26	2207.00
189.73	3184.00
190.21	3322.00
190.69	3479.00
191.17	3448.00
191.64	3485.00
192.12	3441.00
192.60	3423.00
193.07	3395.00
193.55	3420.00
194.03	3412.00
194.51	3420.00
194.98	3399.00
195.46	3485.00
195.94	3448.00
196.42	3429.00
196.89	3552.00
197.37	3427.00
197.85	3391.00
198.32	3374.00
198.80	3385.00
199.28	3439.00
199.76	3471.00
200.23	3449.00
200.71	3449.00
201.19	3466.00
201.66	3438.00
202.14	3474.00
202.62	3407.00
203.09	3445.00
203.57	3416.00
204.05	3479.00
204.53	3523.00
205.00	3424.00
205.48	3397.00
205.96	3460.00
206.43	3417.00
206.91	3499.00
207.39	3559.00
207.86	3459.00
208.34	3453.00
208.82	3453.00
209.29	3459.00
209.77	3454.00
210.25	3451.00
210.72	3427.00
211.20	3451.00
211.68	3470.00
212.15	3411.00
212.63	3520.00
213.11	3458.00
213.58	3434.00
214.06	3486.00
214.53	3433.00
215.01	3505.00
215.49	3455.00
215.96	3450.00
216.44	3451.00
216.92	3445.00
217.39	3407.00
217.87	3461.00
218.35	3482.00
218.82	3398.00
219.30	3387.00
219.77	3422.00
220.25	3448.00
220.73	3559.00
221.20	3435.00
221.68	3445.00
222.15	3467.00
222.63	3460.00
223.11	3449.00
223.58	3466.00
224.06	3467.00
224.53	3412.00
225.01	3399.00
225.49	3441.00
225.96	3428.00
226.44	3467.00
226.91	3478.00
227.39	3434.00
227.87	3475.00
228.34	3462.00
228.82	3462.00
229.29	3416.00
229.77	3470.00
230.24	3439.00
230.72	3507.00
231.20	3508.00
231.67	3458.00
232.15	3442.00
232.62	3418.00
233.10	3411.00
233.57	3465.00
234.05	3615.00
234.53	3461.00
235.00	3429.00
235.48	3438.00
235.95	3445.00
236.43	3473.00
236.90	3525.00
237.38	3447.00
237.85	3485.00
238.33	3450.00
238.80	3471.00
239.28	3438.00
239.75	3389.00
240.23	3448.00
240.71	3500.00
241.18	3403.00
241.66	3441.00
242.13	3495.00
242.61	3491.00
243.08	3419.00
243.56	3433.00
244.03	3513.00
244.51	3492.00
244.98	3455.00
245.46	3511.00
245.93	4649.00
246.41	3375.00
246.88	3441.00
247.36	3437.00
247.83	3478.00
248.31	3472.00
248.78	3379.00
249.26	3468.00
249.73	3522.00
250.21	3478.00
250.68	3559.00
251.16	3444.00
251.63	3563.00
252.10	3513.00
252.58	3425.00
253.05	3508.00
253.53	3482.00
254.00	3437.00
254.48	3447.00
254.95	3479.00
255.43	3471.00
255.90	3491.00
256.38	3461.00
256.85	3451.00
257.33	3534.00
257.80	3646.00
258.27	3490.00
258.75	3441.00
259.22	3487.00
259.70	3454.00
260.17	3547.00
260.65	3480.00
261.12	3467.00
261.59	3517.00
262.07	3420.00
262.54	3504.00
263.02	3473.00
263.49	3419.00
263.97	3493.00
264.44	3552.00
264.91	3482.00
265.39	3505.00
265.86	3478.00
266.34	3511.00
266.81	3455.00
267.28	3471.00
267.76	3500.00
268.23	3492.00
268.71	3349.00
269.18	3385.00
269.65	3413.00
270.13	3455.00
270.60	3537.00
271.08	3455.00
271.55	3499.00
272.02	3424.00
272.50	3439.00
272.97	3386.00
273.44	3476.00
273.92	3597.00
274.39	3477.00
274.87	3503.00
275.34	3434.00
275.81	3447.00
276.29	3477.00
276.76	3457.00
277.23	3375.00
277.71	3385.00
278.18	3315.00
278.65	3521.00
279.13	3391.00
279.60	3429.00
280.07	3721.00
280.55	3691.00
281.02	3755.00
281.50	3555.00
281.97	3618.00
282.44	3511.00
282.91	3468.00
283.39	3538.00
283.86	3460.00
284.33	3473.00
284.81	3562.00
285.28	3488.00
285.75	3474.00
286.23	3541.00
286.70	3409.00
287.17	3507.00
287.65	3573.00
288.12	3448.00
288.59	3474.00
289.07	3405.00
289.54	3546.00
290.01	3431.00
290.48	3478.00
290.96	3494.00
291.43	3503.00
291.90	3586.00
292.38	3415.00
292.85	3507.00
293.32	3448.00
293.79	3547.00
294.27	3485.00
294.74	3460.00
295.21	3501.00
295.69	3505.00
296.16	3552.00
296.63	3538.00
297.10	3491.00
297.58	3526.00
298.05	3519.00
298.52	3433.00
298.99	3539.00
299.47	3437.00
299.94	3499.00
300.41	3419.00
300.88	3523.00
301.36	3550.00
301.83	3495.00
302.30	3454.00
302.77	3551.00
303.25	3543.00
303.72	3477.00
304.19	3462.00
304.66	3435.00
305.13	3519.00
305.61	3509.00
306.08	3516.00
306.55	3489.00
307.02	3437.00
307.49	3462.00
307.97	3455.00
308.44	3429.00
308.91	3517.00
309.38	3515.00
309.86	3531.00
310.33	3474.00
310.80	3508.00
311.27	3467.00
311.74	3520.00
312.21	3434.00
312.69	3621.00
313.16	3498.00
313.63	3499.00
314.10	3497.00
314.57	3477.00
315.05	3454.00
315.52	3529.00
315.99	3507.00
316.46	3516.00
316.93	3506.00
317.40	3505.00
317.88	3634.00
318.35	3511.00
318.82	3519.00
319.29	3444.00
319.76	3535.00
320.23	3575.00
320.70	3542.00
321.18	3523.00
321.65	3435.00
322.12	3486.00
322.59	3573.00
323.06	3511.00
323.53	3618.00
324.00	3487.00
324.48	3518.00
324.95	3487.00
325.42	3504.00
325.89	3491.00
326.36	3496.00
326.83	3578.00
327.30	3519.00
327.77	3532.00
328.24	3516.00
328.72	3488.00
329.19	3522.00
329.66	3510.00
330.13	3493.00
330.60	3576.00
331.07	3547.00
331.54	3623.00
332.01	3509.00
332.48	3596.00
332.95	3565.00
333.43	3550.00
333.90	3584.00
334.37	3542.00
334.84	3555.00
335.31	3678.00
335.78	3509.00
336.25	3496.00
336.72	3534.00
337.19	3509.00
337.66	3539.00
338.13	3568.00
338.60	3606.00
339.07	3558.00
339.54	3515.00
340.01	3488.00
340.49	3491.00
340.96	3532.00
341.43	3567.00
341.90	3483.00
342.37	3544.00
342.84	3567.00
343.31	3527.00
343.78	3475.00
344.25	3475.00
344.72	3491.00
345.19	3522.00
345.66	3550.00
346.13	3479.00
346.60	3491.00
347.07	3586.00
347.54	3512.00
348.01	3575.00
348.48	3517.00
348.95	3510.00
349.42	3521.00
349.89	3554.00
350.36	3511.00
350.83	3503.00
351.30	3521.00
351.77	3605.00
352.24	3540.00
352.71	3491.00
353.18	3554.00
353.65	3553.00
354.12	3510.00
354.59	3537.00
355.06	3509.00
355.53	3591.00
356.00	3484.00
356.47	3592.00
356.94	3460.00
357.41	3679.00
357.88	3565.00
358.35	3467.00
358.82	3473.00
359.28	3497.00
359.75	3509.00
360.22	3565.00
360.69	3573.00
361.16	3521.00
361.63	3510.00
362.10	3543.00
362.57	3514.00
363.04	3513.00
363.51	3633.00
363.98	3547.00
364.45	3498.00
364.92	3547.00
365.39	3557.00
365.86	3486.00
366.32	3547.00
366.79	3515.00
367.26	4689.00
367.73	3477.00
368.20	3514.00
368.67	3527.00
369.14	3478.00
369.61	3591.00
370.08	3515.00
370.55	3524.00
371.02	4201.00
371.48	3539.00
371.95	3497.00
372.42	3444.00
372.89	3534.00
373.36	3537.00
373.83	3446.00
374.30	3508.00
374.77	3557.00
375.23	3464.00
375.70	3611.00
376.17	3508.00
376.64	3455.00
377.11	3524.00
377.58	3562.00
378.05	3559.00
378.51	3504.00
378.98	3521.00
379.45	3514.00
379.92	3536.00
380.39	3669.00
380.86	3533.00
381.33	3578.00
381.79	3603.00
382.26	3464.00
382.73	3519.00
383.20	3511.00
383.67	3564.00
384.14	3504.00
384.60	3702.00
385.07	3534.00
385.54	3507.00
386.01	3519.00
386.48	3603.00
386.94	3495.00
387.41	3482.00
387.88	3551.00
388.35	3556.00
388.82	3577.00
389.28	3503.00
389.75	3572.00
390.22	3568.00
390.69	3573.00
391.16	3560.00
391.62	3505.00
392.09	3566.00
392.56	3538.00
393.03	3498.00
393.50	3587.00
393.96	3509.00
394.43	3527.00
394.90	3539.00
395.37	3533.00
395.83	3742.00
396.30	3464.00
396.77	3559.00
397.24	3531.00
397.70	3496.00
398.17	3487.00
398.64	3490.00
399.11	3539.00
399.57	3563.00
400.04	3478.00
400.51	3548.00
400.98	3523.00
401.44	3542.00
401.91	3553.00
402.38	3529.00
402.84	3490.00
403.31	3599.00
403.78	3550.00
404.25	3583.00
404.71	3601.00
405.18	3577.00
405.65	3480.00
406.12	3576.00
406.58	3554.00
407.05	3625.00
407.52	3551.00
407.98	4057.00
408.45	3500.00
408.92	3462.00
409.38	3586.00
409.85	3487.00
410.32	3583.00
410.78	3487.00
411.25	3610.00
411.72	3519.00
412.18	3510.00
412.65	3559.00
413.12	3551.00
413.59	3544.00
414.05	3553.00
414.52	3586.00
414.98	3503.00
415.45	3630.00
415.92	3555.00
416.38	3524.00
416.85	3644.00
417.32	3568.00
417.78	3539.00
418.25	3571.00
418.72	3547.00
419.18	3606.00
419.65	3511.00
420.12	3594.00
420.58	3532.00
421.05	3576.00
421.51	3567.00
421.98	3580.00
422.45	3537.00
422.91	3545.00
423.38	3608.00
423.85	3596.00
424.31	3569.00
424.78	3623.00
425.24	3587.00
425.71	3641.00
426.18	3557.00
426.64	3609.00
427.11	3621.00
427.57	3606.00
428.04	3563.00
428.51	3624.00
428.97	3593.00
429.44	3546.00
429.90	3627.00
430.37	3689.00
430.83	3531.00
431.30	3564.00
431.77	3685.00
432.23	3664.00
432.70	3609.00
433.16	3575.00
433.63	3609.00
434.09	3565.00
434.56	3608.00
435.03	3588.00
435.49	3629.00
435.96	3639.00
436.42	3567.00
436.89	3661.00
437.35	3593.00
437.82	3617.00
438.28	3609.00
438.75	3599.00
439.21	3724.00
439.68	3659.00
440.14	3669.00
440.61	3663.00
441.07	3577.00
441.54	3625.00
442.00	3712.00
442.47	3611.00
442.94	3635.00
443.40	3601.00
443.87	3591.00
444.33	3745.00
444.80	3650.00
445.26	3649.00
445.73	3614.00
446.19	3658.00
446.65	3616.00
447.12	3638.00
447.58	3594.00
448.05	3617.00
448.51	3667.00
448.98	3701.00
449.44	3649.00
449.91	3603.00
450.37	3631.00
450.84	3651.00
451.30	3670.00
451.77	3675.00
452.23	3605.00
452.70	3675.00
453.16	3669.00
453.62	3680.00
454.09	3651.00
454.55	3651.00
455.02	3669.00
455.48	3615.00
455.95	3703.00
456.41	3629.00
456.88	3685.00
457.34	3670.00
457.80	3641.00
458.27	3569.00
458.73	3662.00
459.20	3649.00
459.66	3638.00
460.13	3588.00
460.59	3564.00
461.05	3685.00
461.52	3666.00
461.98	3584.00
462.45	3542.00
462.91	3621.00
463.37	3610.00
463.84	3575.00
464.30	3554.00
464.76	3517.00
465.23	3563.00
465.69	3627.00
466.16	3563.00
466.62	3549.00
467.08	3584.00
467.55	3543.00
468.01	3561.00
468.48	3587.00
468.94	3553.00
469.40	3492.00
469.87	3584.00
470.33	3565.00
470.79	3518.00
471.26	3514.00
471.72	3517.00
472.18	3481.00
472.65	3520.00
473.11	3581.00
473.57	3521.00
474.04	3485.00
474.50	3506.00
474.96	3504.00
475.43	3511.00
475.89	3475.00
476.35	3553.00
476.82	3517.00
477.28	3495.00
477.74	3553.00
478.21	3491.00
478.67	3607.00
479.13	3478.00
479.59	3566.00
480.06	3540.00
480.52	3525.00
480.98	3488.00
481.45	3511.00
481.91	3495.00
482.37	3445.00
482.84	3477.00
483.30	3491.00
483.76	3501.00
484.22	3555.00
484.69	3523.00
485.15	3488.00
485.61	3405.00
486.07	3451.00
486.54	3436.00
487.00	3471.00
487.46	3446.00
487.92	3455.00
488.39	3474.00
488.85	3526.00
489.31	3494.00
489.77	3508.00
490.24	3439.00
490.70	3502.00
491.16	3437.00
491.62	3440.00
492.09	3459.00
492.55	3536.00
493.01	3551.00
493.47	3537.00
493.94	3480.00
494.40	3547.00
494.86	3494.00
495.32	3485.00
495.78	3527.00
496.25	3516.00
496.71	3530.00
497.17	3609.00
497.63	3568.00
498.09	3498.00
498.56	3565.00
499.02	3548.00
499.48	3701.00
499.94	3542.00
500.40	3535.00
500.87	3513.00
501.33	3525.00
501.79	3577.00
502.25	3593.00
502.71	3856.00
503.17	3554.00
503.64	3623.00
504.10	3596.00
504.56	3647.00
505.02	3671.00
505.48	3603.00
505.94	3595.00
506.40	3671.00
506.87	3671.00
507.33	3693.00
507.79	3697.00
508.25	3642.00
508.71	3669.00
509.17	3668.00
509.63	3707.00
510.10	3732.00
510.56	3732.00
511.02	3851.00
511.48	3876.00
511.94	3787.00
512.40	3767.00
512.86	3860.00
513.32	3879.00
513.78	3788.00
514.25	3951.00
514.71	4551.00
515.17	3841.00
515.63	3980.00
516.09	4003.00
516.55	3929.00
517.01	4057.00
517.47	4046.00
517.93	4035.00
518.39	4214.00
518.85	4154.00
519.32	4169.00
519.78	4137.00
520.24	4219.00
520.70	4298.00
521.16	4344.00
521.62	4383.00
522.08	4361.00
522.54	4428.00
523.00	4525.00
523.46	4597.00
523.92	4568.00
524.38	4703.00
524.84	4651.00
525.30	4661.00
525.76	4678.00
526.22	4664.00
526.68	4601.00
527.14	4745.00
527.60	4734.00
528.06	4937.00
528.52	4895.00
528.98	4984.00
529.44	4919.00
529.90	4995.00
530.36	5043.00
530.82	5048.00
531.28	5173.00
531.74	5141.00
532.20	5060.00
532.66	5051.00
533.12	5127.00
533.58	5180.00
534.04	5154.00
534.50	5214.00
534.96	5241.00
535.42	5285.00
535.88	5301.00
536.34	5310.00
536.80	5288.00
537.26	5405.00
537.72	5379.00
538.18	5380.00
538.64	5466.00
539.10	5393.00
539.56	5619.00
540.02	5235.00
540.48	5409.00
540.94	5450.00
541.40	5431.00
541.86	5489.00
542.32	5496.00
542.78	5546.00
543.24	5641.00
543.69	5516.00
544.15	5627.00
544.61	5608.00
545.07	5579.00
545.53	5615.00
545.99	5673.00
546.45	5651.00
546.91	5657.00
547.37	5622.00
547.83	5668.00
548.29	5703.00
548.74	5720.00
549.20	5746.00
549.66	5857.00
550.12	5667.00
550.58	5717.00
551.04	5777.00
551.50	5791.00
551.96	5923.00
552.42	5812.00
552.87	5730.00
553.33	5798.00
553.79	5846.00
554.25	5807.00
554.71	5868.00
555.17	5884.00
555.63	5941.00
556.08	5807.00
556.54	5834.00
557.00	5766.00
557.46	5765.00
557.92	5825.00
558.38	5683.00
558.83	5639.00
559.29	5630.00
559.75	5663.00
560.21	5625.00
560.67	5783.00
561.13	5735.00
561.58	5579.00
562.04	5615.00
562.50	5606.00
562.96	5704.00
563.42	5635.00
563.87	5569.00
564.33	5550.00
564.79	5563.00
565.25	5424.00
565.71	5495.00
566.16	5477.00
566.62	5480.00
567.08	5474.00
567.54	5432.00
568.00	5447.00
568.45	5305.00
568.91	5266.00
569.37	5327.00
569.83	5299.00
570.28	5230.00
570.74	5166.00
571.20	5221.00
571.66	5197.00
572.11	5201.00
572.57	5171.00
573.03	5100.00
573.49	5138.00
573.94	5070.00
574.40	5124.00
574.86	5051.00
575.32	4917.00
575.77	4947.00
576.23	4878.00
576.69	5033.00
577.15	4887.00
577.60	4930.00
578.06	4830.00
578.52	4903.00
578.97	4895.00
579.43	4799.00
579.89	4875.00
580.34	4891.00
580.80	4811.00
581.26	4807.00
581.72	4830.00
582.17	4774.00
582.63	4776.00
583.09	4745.00
583.54	4837.00
584.00	4735.00
584.46	4787.00
584.91	4727.00
585.37	4824.00
585.83	4689.00
586.28	4657.00
586.74	4685.00
587.20	4688.00
587.65	4709.00
588.11	4642.00
588.57	4554.00
589.02	4496.00
589.48	4440.00
589.94	4556.00
590.39	4650.00
590.85	4567.00
591.30	4602.00
591.76	4632.00
592.22	4554.00
592.67	4550.00
593.13	4533.00
593.59	4569.00
594.04	4563.00
594.50	4567.00
594.95	4561.00
595.41	4519.00
595.87	4492.00
596.32	4609.00
596.78	4620.00
597.23	4617.00
597.69	4583.00
598.15	4537.00
598.60	4516.00
599.06	4611.00
599.51	4522.00
599.97	4574.00
600.43	4575.00
600.88	4587.00
601.34	4562.00
601.79	4477.00
602.25	4713.00
602.70	4544.00
603.16	4545.00
603.61	4519.00
604.07	4486.00
604.53	4548.00
604.98	4485.00
605.44	4497.00
605.89	4437.00
606.35	4394.00
606.80	4495.00
607.26	4476.00
607.71	4402.00
608.17	4503.00
608.62	4456.00
609.08	4565.00
609.53	4476.00
609.99	4379.00
610.44	4375.00
610.90	4379.00
611.35	4339.00
611.81	4419.00
612.26	4386.00
612.72	4341.00
613.17	4420.00
613.63	4258.00
614.08	4197.00
614.54	4292.00
614.99	4240.00
615.45	4247.00
615.90	4220.00
616.36	4181.00
616.81	4197.00
617.27	4234.00
617.72	4303.00
618.18	4219.00
618.63	4242.00
619.09	4173.00
619.54	4281.00
619.99	4196.00
620.45	4265.00
620.90	4291.00
621.36	4189.00
621.81	4237.00
622.27	4286.00
622.72	4234.00
623.18	4183.00
623.63	4139.00
624.08	4183.00
624.54	4139.00
624.99	4171.00
625.45	4211.00
625.90	4121.00
626.35	4153.00
626.81	4143.00
627.26	4127.00
627.72	4189.00
628.17	4127.00
628.62	4086.00
629.08	4143.00
629.53	4163.00
629.99	4123.00
630.44	4157.00
630.89	4125.00
631.35	4157.00
631.80	4112.00
632.26	4226.00
632.71	4131.00
633.16	4151.00
633.62	4093.00
634.07	4136.00
634.52	4080.00
634.98	4149.00
635.43	4091.00
635.88	4098.00
636.34	4149.00
636.79	4098.00
637.24	4081.00
637.70	4129.00
638.15	4135.00
638.60	4036.00
639.06	4031.00
639.51	4010.00
639.96	3978.00
640.42	4049.00
640.87	4074.00
641.32	3990.00
641.78	3976.00
642.23	3978.00
642.68	3903.00
643.14	3961.00
643.59	3970.00
644.04	3907.00
644.49	3910.00
644.95	3869.00
645.40	3862.00
645.85	3881.00
646.31	3871.00
646.76	3914.00
647.21	3960.00
647.66	3853.00
648.12	3825.00
648.57	3786.00
649.02	3832.00
649.47	3795.00
649.93	3986.00
650.38	3770.00
650.83	3745.00
651.28	3726.00
651.74	3777.00
652.19	3735.00
652.64	3793.00
653.09	3806.00
653.55	3752.00
654.00	3780.00
654.45	3763.00
654.90	3720.00
655.35	3671.00
655.81	3730.00
656.26	3561.00
656.71	3639.00
657.16	3717.00
657.62	3745.00
658.07	3695.00
658.52	3742.00
658.97	3641.00
659.42	3880.00
659.88	3682.00
660.33	3697.00
660.78	3671.00
661.23	3660.00
661.68	3616.00
662.13	3597.00
662.59	3577.00
663.04	3662.00
663.49	3635.00
663.94	3574.00
664.39	3597.00
664.84	3572.00
665.30	3550.00
665.75	3537.00
666.20	3572.00
666.65	3607.00
667.10	3688.00
667.55	3638.00
668.00	3507.00
668.46	3610.00
668.91	3522.00
669.36	3646.00
669.81	3471.00
670.26	3541.00
670.71	3623.00
671.16	3505.00
671.61	3604.00
672.06	3605.00
672.52	3519.00
672.97	3556.00
673.42	3631.00
673.87	3675.00
674.32	3521.00
674.77	3563.00
675.22	3469.00
675.67	3489.00
676.12	3508.00
676.57	3497.00
677.02	3486.00
677.47	3517.00
677.93	3657.00
678.38	3497.00
678.83	3513.00
679.28	3546.00
679.73	3500.00
680.18	3515.00
680.63	3543.00
681.08	3461.00
681.53	3445.00
681.98	3511.00
682.43	3539.00
682.88	3614.00
683.33	3581.00
683.78	3548.00
684.23	3671.00
684.68	3570.00
685.13	3599.00
685.58	3614.00
686.03	3601.00
686.48	3537.00
686.93	3536.00
687.38	3557.00
687.83	3624.00
688.28	3643.00
688.73	3783.00
689.18	3750.00
689.63	3702.00
690.08	3781.00
690.53	3787.00
690.98	3779.00
691.43	3918.00
691.88	3948.00
692.33	4015.00
692.78	4079.00
693.23	4141.00
693.68	4229.00
694.13	4262.00
694.58	4363.00
695.03	4676.00
695.48	4565.00
695.93	4639.00
696.38	4809.00
696.83	4915.00
697.28	4967.00
697.72	5117.00
698.17	5119.00
698.62	5295.00
699.07	5421.00
699.52	5476.00
699.97	5600.00
700.42	5804.00
700.87	5954.00
701.32	6171.00
701.77	6032.00
702.22	6336.00
702.67	6369.00
703.11	6561.00
703.56	6731.00
704.01	6898.00
704.46	7057.00
704.91	7382.00
705.36	7397.00
705.81	7541.00
706.26	7579.00
706.70	7805.00
707.15	7947.00
707.60	8099.00
708.05	8399.00
708.50	8467.00
708.95	8619.00
709.40	8731.00
709.84	8909.00
710.29	9041.00
710.74	9131.00
711.19	9330.00
711.64	9440.00
712.09	9637.00
712.53	9783.00
712.98	9905.00
713.43	10071.00
713.88	10207.00
714.33	10202.00
714.78	10327.00
715.22	10419.00
715.67	10451.00
716.12	10558.00
716.57	10177.00
717.02	9895.00
717.46	9681.00
717.91	9869.00
718.36	9783.00
718.81	9683.00
719.26	9734.00
719.70	9905.00
720.15	10140.00
720.60	10547.00
721.05	11205.00
721.49	11708.00
721.94	11898.00
722.39	11993.00
722.84	11758.00
723.28	11512.00
723.73	11403.00
724.18	11496.00
724.63	11769.00
725.07	11832.00
725.52	11938.00
725.97	12210.00
726.42	12381.00
726.86	12664.00
727.31	12392.00
727.76	12544.00
728.21	12778.00
728.65	12849.00
729.10	12801.00
729.55	13099.00
729.99	13465.00
730.44	13400.00
730.89	13785.00
731.33	13997.00
731.78	14263.00
732.23	14667.00
732.68	14892.00
733.12	15074.00
733.57	15496.00
734.02	15752.00
734.46	15964.00
734.91	15887.00
735.36	15950.00
735.80	16221.00
736.25	16087.00
736.70	16441.00
737.14	16620.00
737.59	16635.00
738.04	16658.00
738.48	16599.00
738.93	16544.00
739.37	16833.00
739.82	17141.00
740.27	17354.00
740.71	17324.00
741.16	17269.00
741.61	17338.00
742.05	17403.00
742.50	17491.00
742.94	17694.00
743.39	17836.00
743.84	17875.00
744.28	17894.00
744.73	17983.00
745.18	18110.00
745.62	18306.00
746.07	18283.00
746.51	18175.00
746.96	18306.00
747.40	18137.00
747.85	18167.00
748.30	18177.00
748.74	18067.00
749.19	18163.00
749.63	18430.00
750.08	18315.00
750.52	18323.00
750.97	18275.00
751.42	18247.00
751.86	18313.00
752.31	18301.00
752.75	18384.00
753.20	18154.00
753.64	18298.00
754.09	18299.00
754.53	18347.00
754.98	18364.00
755.42	18376.00
755.87	18298.00
756.31	18211.00
756.76	18084.00
757.20	18055.00
757.65	17834.00
758.09	17737.00
758.54	17042.00
758.98	15508.00
759.43	12509.00
759.87	9462.00
760.32	7655.00
760.76	7581.00
761.21	8890.00
761.65	10480.00
762.10	10901.00
762.54	10426.00
762.99	9923.00
763.43	10119.00
763.88	10813.00
764.32	11487.00
764.77	12367.00
765.21	13206.00
765.66	13835.00
766.10	14618.00
766.54	15279.00
766.99	15760.00
767.43	16455.00
767.88	16725.00
768.32	17111.00
768.77	17293.00
769.21	17553.00
769.66	17804.00
770.10	17966.00
770.54	18226.00
770.99	18043.00
771.43	18091.00
771.88	18082.00
772.32	18083.00
772.76	17955.00
773.21	17980.00
773.65	17886.00
774.10	17875.00
774.54	17828.00
774.98	17905.00
775.43	18238.00
775.87	18133.00
776.31	18400.00
776.76	18327.00
777.20	18092.00
777.65	18038.00
778.09	17888.00
778.53	17939.00
778.98	17804.00
779.42	17856.00
779.86	17900.00
780.31	17800.00
780.75	17815.00
781.19	17921.00
781.64	18047.00
782.08	18205.00
782.52	17888.00
782.97	17809.00
783.41	17694.00
783.85	17621.00
784.30	17473.00
784.74	17376.00
785.18	17312.00
785.63	17469.00
786.07	17548.00
786.51	17515.00
786.95	17507.00
787.40	17450.00
787.84	17299.00
788.28	17138.00
788.73	17312.00
789.17	16960.00
789.61	16812.00
790.05	16764.00
790.50	16591.00
790.94	16693.00
791.38	16760.00
791.82	16544.00
792.27	16740.00
792.71	16711.00
793.15	16915.00
793.59	16884.00
794.04	16693.00
794.48	16648.00
794.92	16395.00
795.36	16294.00
795.81	16219.00
796.25	16113.00
796.69	16233.00
797.13	16353.00
797.57	16413.00
798.02	16557.00
798.46	16637.00
798.90	16706.00
799.34	16441.00
799.79	16341.00
800.23	16027.00
800.67	15988.00
801.11	15833.00
801.55	15902.00
801.99	15757.00
802.44	15902.00
802.88	16053.00
803.32	16082.00
803.76	16114.00
804.20	16141.00
804.64	16172.00
805.09	16208.00
805.53	16156.00
805.97	16015.00
806.41	15786.00
806.85	15711.00
807.29	15529.00
807.74	15509.00
808.18	15402.00
808.62	15471.00
809.06	15445.00
809.50	15604.00
809.94	15517.00
810.38	15605.00
810.82	15564.00
811.27	15507.00
811.71	15024.00
812.15	14893.00
812.59	14480.00
813.03	14245.00
813.47	13832.00
813.91	13513.00
814.35	13448.00
814.79	13182.00
815.23	13135.00
815.67	12938.00
816.12	12981.00
816.56	12821.00
817.00	13030.00
817.44	13198.00
817.88	13154.00
818.32	13008.00
818.76	12975.00
819.20	13080.00
819.64	13147.00
820.08	13278.00
820.52	13596.00
820.96	13863.00
821.40	13580.00
821.84	13183.00
822.28	12570.00
822.72	12545.00
823.16	12440.00
823.60	12966.00
824.04	13863.00
824.48	13940.00
824.92	13969.00
825.36	14104.00
825.80	13699.00
826.24	13648.00
826.68	13594.00
827.12	13560.00
827.56	13378.00
828.00	13288.00
828.44	13301.00
828.88	13568.00
829.32	13657.00
829.76	13750.00
830.20	13899.00
830.64	13675.00
831.08	13793.00
831.52	13501.00
831.96	13387.00
832.40	13120.00
832.84	13251.00
833.28	13403.00
833.72	13696.00
834.16	13877.00
834.60	14250.00
835.04	14394.00
835.48	14402.00
835.91	14415.00
836.35	14345.00
836.79	14270.00
837.23	14141.00
837.67	14025.00
838.11	13900.00
838.55	14010.00
838.99	13938.00
839.43	14183.00
839.87	14393.00
840.30	14460.00
840.74	14617.00
841.18	14603.00
841.62	14689.00
842.06	14700.00
842.50	14687.00
842.94	14532.00
843.38	14358.00
843.81	14202.00
844.25	14039.00
844.69	14021.00
845.13	13840.00
845.57	13966.00
846.01	13963.00
846.45	14119.00
846.88	14356.00
847.32	14401.00
847.76	14580.00
848.20	14546.00
848.64	14437.00
849.08	14244.00
849.51	14293.00
849.95	13917.00
850.39	13908.00
850.83	14119.00
851.27	13993.00
851.70	13843.00
852.14	13737.00
852.58	13589.00
853.02	13059.00
853.46	12855.00
853.89	12714.00
854.33	12857.00
854.77	13284.00
855.21	14039.00
855.65	14334.00
856.08	14521.00
856.52	14607.00
856.96	14423.00
857.40	14293.00
857.83	14056.00
858.27	13826.00
858.71	13473.00
859.15	13506.00
859.58	13681.00
860.02	13664.00
860.46	14062.00
860.89	14143.00
861.33	14333.00
861.77	14472.00
862.21	14523.00
862.64	14338.00
863.08	14436.00
863.52	14270.00
863.95	14101.00
864.39	13909.00
864.83	13401.00
865.27	12846.00
865.70	12819.00
866.14	12461.00
866.58	12595.00
867.01	13109.00
867.45	13590.00
867.89	13925.00
868.32	14107.00
868.76	14195.00
869.20	14252.00
869.63	14403.00
870.07	14214.00
870.51	13761.00
870.94	13627.00
871.38	13270.00
871.82	13131.00
872.25	13195.00
872.69	13036.00
873.13	13001.00
873.56	13329.00
874.00	13505.00
874.43	13634.00
874.87	13732.00
875.31	13810.00
875.74	13876.00
876.18	14066.00
876.61	13944.00
877.05	13791.00
877.49	13696.00
877.92	13493.00
878.36	13336.00
878.79	13103.00
879.23	12833.00
879.67	12674.00
880.10	12757.00
880.54	12756.00
880.97	12895.00
881.41	13225.00
881.84	13410.00
882.28	13640.00
882.72	14021.00
883.15	14065.00
883.59	13996.00
884.02	14030.00
884.46	13822.00
884.89	13653.00
885.33	13485.00
885.76	13058.00
886.20	12870.00
886.63	12675.00
887.07	12639.00
887.50	12643.00
887.94	12629.00
888.37	12825.00
888.81	13117.00
889.24	13054.00
889.68	13245.00
890.11	13310.00
890.55	13486.00
890.98	13496.00
891.42	13444.00
891.85	13322.00
892.29	13237.00
892.72	12975.00
893.16	12569.00
893.59	12443.00
894.03	12032.00
894.46	11687.00
894.90	11375.00
895.33	10995.00
895.77	11036.00
896.20	10892.00
896.63	10910.00
897.07	10998.00
897.50	10865.00
897.94	11015.00
898.37	11371.00
898.81	10788.00
899.24	10681.00
899.68	11203.00
900.11	10956.00
900.54	10719.00
900.98	10630.00
901.41	10642.00
901.85	10664.00
902.28	10719.00
902.71	10721.00
903.15	11168.00
903.58	11367.00
904.02	11431.00
904.45	11544.00
904.88	11371.00
905.32	11210.00
905.75	11173.00
906.18	10871.00
906.62	11012.00
907.05	10677.00
907.48	10807.00
907.92	10707.00
908.35	10714.00
908.79	10392.00
909.22	10455.00
909.65	10415.00
910.09	10388.00
910.52	10302.00
910.95	10237.00
911.38	10274.00
911.82	9940.00
912.25	10098.00
912.68	10317.00
913.12	10241.00
913.55	10276.00
913.98	10597.00
914.42	10974.00
914.85	10998.00
915.28	10529.00
915.72	10532.00
916.15	10463.00
916.58	10451.00
917.01	10091.00
917.45	9944.00
917.88	10129.00
918.31	10256.00
918.74	10643.00
919.18	10657.00
919.61	10634.00
920.04	10879.00
920.47	11000.00
920.91	10988.00
921.34	10951.00
921.77	11005.00
922.20	11192.00
922.64	11166.00
923.07	11163.00
923.50	10964.00
923.93	10814.00
924.37	10691.00
924.80	10638.00
925.23	10527.00
925.66	10250.00
926.09	9761.00
926.53	9562.00
926.96	9314.00
927.39	9117.00
927.82	8719.00
928.25	8391.00
928.69	8363.00
929.12	8195.00
929.55	7935.00
929.98	7605.00
930.41	7228.00
930.84	7073.00
931.28	6676.00
931.71	6431.00
932.14	5907.00
932.57	5891.00
933.00	5593.00
933.43	5499.00
933.86	5301.00
934.30	5194.00
934.73	5535.00
935.16	5334.00
935.59	5175.00
936.02	5334.00
936.45	5237.00
936.88	5269.00
937.31	5580.00
937.75	5723.00
938.18	5814.00
938.61	6138.00
939.04	6232.00
939.47	6209.00
939.90	5955.00
940.33	5842.00
940.76	5488.00
941.19	5373.00
941.62	5323.00
942.05	5292.00
942.48	4965.00
942.91	4961.00
943.35	5102.00
943.78	4978.00
944.21	4965.00
944.64	5115.00
945.07	5253.00
945.50	5224.00
945.93	5178.00
946.36	5398.00
946.79	5407.00
947.22	5568.00
947.65	5587.00
948.08	5331.00
948.51	5619.00
948.94	5643.00
949.37	5656.00
949.80	5389.00
950.23	5433.00
950.66	5657.00
951.09	5551.00
951.52	5426.00
951.95	5516.00
952.38	5571.00
952.81	5848.00
953.24	5878.00
953.67	5928.00
954.10	5955.00
954.53	6125.00
954.96	6092.00
955.39	6164.00
955.82	6372.00
956.25	6261.00
956.68	6451.00
957.11	6411.00
957.53	6302.00
957.96	6278.00
958.39	6129.00
958.82	5974.00
959.25	6092.00
959.68	6267.00
960.11	6426.00
960.54	6467.00
960.97	6741.00
961.40	6788.00
961.83	6721.00
962.26	6845.00
962.68	7204.00
963.11	7339.00
963.54	7281.00
963.97	7361.00
964.40	7295.00
964.83	7546.00
965.26	7508.00
965.69	7530.00
966.11	7395.00
966.54	7364.00
966.97	7688.00
967.40	7787.00
967.83	7870.00
968.26	7773.00
968.69	7857.00
969.11	7847.00
969.54	7774.00
969.97	7837.00
970.40	8037.00
970.83	8015.00
971.26	8111.00
971.68	8055.00
972.11	8003.00
972.54	8104.00
972.97	8148.00
973.40	8088.00
973.82	8008.00
974.25	7995.00
974.68	7882.00
975.11	7812.00
975.54	7711.00
975.96	7684.00
976.39	7674.00
976.82	7768.00
977.25	7688.00
977.67	7563.00
978.10	7654.00
978.53	7741.00
978.96	7880.00
979.38	7953.00
979.81	8114.00
980.24	8224.00
980.67	8432.00
981.09	8464.00
981.52	8571.00
981.95	8478.00
982.38	8523.00
982.80	8673.00
983.23	8694.00
983.66	8683.00
984.08	8605.00
984.51	8594.00
984.94	8514.00
985.37	8460.00
985.79	8333.00
986.22	8204.00
986.65	8155.00
987.07	8111.00
987.50	7985.00
987.93	8083.00
988.35	8114.00
988.78	8107.00
989.21	8242.00
989.63	8252.00
990.06	8395.00
990.49	8437.00
990.91	8673.00
991.34	8660.00
991.77	8598.00
992.19	8663.00
992.62	8624.00
993.05	8589.00
993.47	8582.00
993.90	8537.00
994.32	8450.00
994.75	8259.00
995.18	8129.00
995.60	8045.00
996.03	7950.00
996.45	7965.00
996.88	8033.00
997.31	7847.00
997.73	7914.00
998.16	7816.00
998.58	8029.00
999.01	8061.00
999.44	8144.00
999.86	8227.00
1000.29	8191.00
1000.71	8279.00
1001.14	8302.00
1001.56	8273.00
1001.99	8170.00
1002.41	8050.00
1002.84	8006.00
1003.27	7811.00
1003.69	7773.00
1004.12	7643.00
1004.54	7539.00
1004.97	7487.00
1005.39	7309.00
1005.82	7428.00
1006.24	7381.00
1006.67	7295.00
1007.09	7290.00
1007.52	7307.00
1007.94	7399.00
1008.37	7534.00
1008.79	7406.00
1009.22	7499.00
1009.64	7467.00
1010.07	7452.00
1010.49	7491.00
1010.92	7453.00
1011.34	7536.00
1011.77	7493.00
1012.19	7517.00
1012.62	7441.00
1013.04	7342.00
1013.46	7298.00
1013.89	7041.00
1014.31	7121.00
1014.74	6937.00
1015.16	6875.00
1015.59	6858.00
1016.01	6843.00
1016.44	6953.00
1016.86	7757.00
1017.28	6976.00
1017.71	6878.00
1018.13	7187.00
1018.56	7142.00
1018.98	7135.00
1019.40	7171.00
1019.83	7207.00
1020.25	7227.00
1020.68	7292.00
1021.10	7332.00
1021.52	7301.00
1021.95	7501.00
1022.37	7394.00
1022.79	7359.00
1023.22	7295.00
1023.64	7366.00
1024.07	7216.00
1024.49	7123.00
1024.91	7071.00
1025.34	6965.00
1025.76	7139.00
1026.18	7006.00
1026.61	6949.00
1027.03	6841.00
1027.45	6887.00
1027.88	6840.00
1028.30	6985.00
1028.72	6990.00
1029.15	7077.00
1029.57	7013.00
1029.99	7120.00
1030.41	6983.00
1030.84	7049.00
1031.26	7031.00
1031.68	6958.00
1032.11	6997.00
1032.53	6934.00
1032.95	6818.00
1033.37	6818.00
1033.80	6766.00
1034.22	6557.00
1034.64	6675.00
1035.06	6438.00
1035.49	6384.00
1035.91	6422.00
1036.33	6265.00
1036.75	6331.00
1037.18	6271.00
1037.60	6313.00
1038.02	6339.00
1038.44	6347.00
1038.87	6282.00
1039.29	6263.00
1039.71	6356.00
1040.13	6299.00
1040.55	6327.00
1040.98	6288.00
1041.40	6378.00
1041.82	6289.00
1042.24	6235.00
1042.66	6186.00
1043.09	6083.00
1043.51	6051.00
1043.93	5963.00
1044.35	5935.00
1044.77	5945.00
1045.20	5906.00
1045.62	5760.00
1046.04	5781.00
1046.46	5726.00
1046.88	5643.00
1047.30	5749.00
1047.72	5686.00
1048.15	5659.00
1048.57	5577.00
1048.99	5601.00
1049.41	5595.00
1049.83	5625.00
1050.25	5646.00
1050.67	5582.00
1051.09	5560.00
1051.52	5572.00
1051.94	5421.00
1052.36	5559.00
1052.78	5438.00
1053.20	5458.00
1053.62	5418.00
1054.04	5447.00
1054.46	5362.00
1054.88	5473.00
1055.30	5357.00
1055.72	5370.00
1056.14	5230.00
1056.57	5353.00
1056.99	5058.00
1057.41	5126.00
1057.83	5108.00
1058.25	5089.00
1058.67	5035.00
1059.09	4998.00
1059.51	5000.00
1059.93	4964.00
1060.35	4951.00
1060.77	4961.00
1061.19	4992.00
1061.61	4927.00
1062.03	4892.00
1062.45	4871.00
1062.87	4943.00
1063.29	4919.00
1063.71	4827.00
1064.13	4775.00
1064.55	4764.00
1064.97	4856.00
1065.39	4755.00
1065.81	4751.00
1066.23	4833.00
1066.65	4697.00
1067.07	4795.00
1067.49	4681.00
1067.91	4617.00
1068.33	4548.00
1068.75	4620.00
1069.17	4651.00
1069.59	4613.00
1070.00	4590.00
1070.42	4555.00
1070.84	4514.00
1071.26	4441.00
1071.68	4438.00
1072.10	4486.00
1072.52	4449.00
1072.94	4399.00
1073.36	4407.00
1073.78	4463.00
1074.20	4424.00
1074.62	4440.00
1075.03	4373.00
1075.45	4425.00
1075.87	4487.00
1076.29	4400.00
1076.71	4434.00
1077.13	4431.00
1077.55	4266.00
1077.97	4324.00
1078.38	4267.00
1078.80	4373.00
1079.22	4314.00
1079.64	4225.00
1080.06	4195.00
1080.48	4240.00
1080.89	4173.00
1081.31	4176.00
1081.73	4204.00
1082.15	4206.00
1082.57	4207.00
1082.99	4121.00
1083.40	4111.00
1083.82	4176.00
1084.24	4069.00
1084.66	4111.00
1085.08	4094.00
1085.49	4029.00
1085.91	4099.00
1086.33	5257.00
1086.75	4079.00
1087.17	4026.00
1087.58	4054.00
1088.00	4025.00
1088.42	4079.00
1088.84	4041.00
1089.25	3995.00
1089.67	3984.00
1090.09	3960.00
1090.51	3935.00
1090.92	3966.00
1091.34	3902.00
1091.76	3894.00
1092.18	3867.00
1092.59	3877.00
1093.01	3835.00
1093.43	3863.00
1093.84	3823.00
1094.26	3821.00
1094.68	3844.00
1095.10	3781.00
1095.51	3812.00
1095.93	3728.00
1096.35	3787.00
1096.76	3754.00
1097.18	3831.00
1097.60	3731.00
1098.01	3741.00
1098.43	3731.00
1098.85	3751.00
1099.26	3681.00
1099.68	3748.00
1100.10	3606.00
1100.51	3626.00
1100.93	3627.00
1101.35	3625.00
1101.76	3655.00
1102.18	4119.00
1102.60	3667.00
1103.01	3518.00
1103.43	3582.00
1103.84	3583.00
1104.26	3539.00
1104.68	3593.00
1105.09	3500.00
1105.51	3523.00
1105.92	3620.00
1106.34	3479.00
1106.76	3573.00
1107.17	3502.00
1107.59	3512.00
1108.00	3450.00
1108.42	3465.00
1108.83	3411.00
1109.25	3427.00
1109.67	3384.00
1110.08	3413.00
1110.50	3404.00
1110.91	3407.00
1111.33	3311.00
1111.74	3371.00
1112.16	3396.00
1112.57	3385.00
1112.99	3324.00
1113.41	3322.00
1113.82	3323.00
1114.24	3335.00
1114.65	3292.00
1115.07	3241.00
1115.48	3113.00
1115.90	2188.00
1116.31	2209.00
1116.73	2209.00
1117.14	2214.00
>>>>>End Processed Spectral Data<<<<<
