SpectraSuite Data File
++++++++++++++++++++++++++++++++++++
Date: Tue May 29 13:10:56 EEST 2018
User: CanSEE
Dark Spectrum Present: No
Reference Spectrum Present: No
Number of Sampled Component Spectra: 1
Spectrometers: MAYP11278
Integration Time (usec): 230000 (MAYP11278)
Spectra Averaged: 1 (MAYP11278)
Boxcar Smoothing: 0 (MAYP11278)
Correct for Electrical Dark: No (MAYP11278)
Strobe/Lamp Enabled: No (MAYP11278)
Correct for Detector Non-linearity: No (MAYP11278)
Correct for Stray Light: No (MAYP11278)
Number of Pixels in Processed Spectrum: 2068
>>>>>Begin Processed Spectral Data<<<<<
187.82	2339.00
188.30	2228.00
188.78	2210.00
189.26	2209.00
189.73	3181.00
190.21	3337.00
190.69	3388.00
191.17	3433.00
191.64	3481.00
192.12	3401.00
192.60	3381.00
193.07	3379.00
193.55	3423.00
194.03	3389.00
194.51	3451.00
194.98	3389.00
195.46	3480.00
195.94	3403.00
196.42	3410.00
196.89	3497.00
197.37	3418.00
197.85	3380.00
198.32	3421.00
198.80	3393.00
199.28	3429.00
199.76	3449.00
200.23	3427.00
200.71	3401.00
201.19	3449.00
201.66	3489.00
202.14	3446.00
202.62	3406.00
203.09	3442.00
203.57	3382.00
204.05	3471.00
204.53	3457.00
205.00	3431.00
205.48	3387.00
205.96	3475.00
206.43	3417.00
206.91	3433.00
207.39	3530.00
207.86	3441.00
208.34	3479.00
208.82	3431.00
209.29	3456.00
209.77	3466.00
210.25	3437.00
210.72	3437.00
211.20	3459.00
211.68	3428.00
212.15	3433.00
212.63	3481.00
213.11	3496.00
213.58	3416.00
214.06	3521.00
214.53	3457.00
215.01	3519.00
215.49	3447.00
215.96	3457.00
216.44	3433.00
216.92	3485.00
217.39	3429.00
217.87	3461.00
218.35	3488.00
218.82	3432.00
219.30	3410.00
219.77	3416.00
220.25	3416.00
220.73	3555.00
221.20	3400.00
221.68	3500.00
222.15	3415.00
222.63	3459.00
223.11	3447.00
223.58	3456.00
224.06	3465.00
224.53	3417.00
225.01	3401.00
225.49	3455.00
225.96	3431.00
226.44	3452.00
226.91	3529.00
227.39	3443.00
227.87	3481.00
228.34	3491.00
228.82	3437.00
229.29	3438.00
229.77	3432.00
230.24	3439.00
230.72	3479.00
231.20	3493.00
231.67	3487.00
232.15	3485.00
232.62	3413.00
233.10	3426.00
233.57	3479.00
234.05	3629.00
234.53	3451.00
235.00	3415.00
235.48	3439.00
235.95	3453.00
236.43	3487.00
236.90	3542.00
237.38	3465.00
237.85	3460.00
238.33	3438.00
238.80	3482.00
239.28	3420.00
239.75	3393.00
240.23	3487.00
240.71	3481.00
241.18	3479.00
241.66	3393.00
242.13	3481.00
242.61	3475.00
243.08	3413.00
243.56	3429.00
244.03	3482.00
244.51	3542.00
244.98	3444.00
245.46	3487.00
245.93	5174.00
246.41	3412.00
246.88	3443.00
247.36	3428.00
247.83	3446.00
248.31	3468.00
248.78	3398.00
249.26	3458.00
249.73	3525.00
250.21	3484.00
250.68	3493.00
251.16	3455.00
251.63	3542.00
252.10	3500.00
252.58	3445.00
253.05	3479.00
253.53	3463.00
254.00	3481.00
254.48	3474.00
254.95	3479.00
255.43	3485.00
255.90	3441.00
256.38	3503.00
256.85	3488.00
257.33	3525.00
257.80	3585.00
258.27	3506.00
258.75	3477.00
259.22	3462.00
259.70	3464.00
260.17	3499.00
260.65	3441.00
261.12	3416.00
261.59	3543.00
262.07	3445.00
262.54	3513.00
263.02	3443.00
263.49	3433.00
263.97	3506.00
264.44	3503.00
264.91	3463.00
265.39	3486.00
265.86	3508.00
266.34	3512.00
266.81	3490.00
267.28	3478.00
267.76	3490.00
268.23	3461.00
268.71	3391.00
269.18	3383.00
269.65	3455.00
270.13	3480.00
270.60	3510.00
271.08	3449.00
271.55	3453.00
272.02	3444.00
272.50	3447.00
272.97	3379.00
273.44	3455.00
273.92	3601.00
274.39	3459.00
274.87	3477.00
275.34	3444.00
275.81	3420.00
276.29	3472.00
276.76	3485.00
277.23	3354.00
277.71	3409.00
278.18	3341.00
278.65	3572.00
279.13	3369.00
279.60	3452.00
280.07	3718.00
280.55	3701.00
281.02	3774.00
281.50	3564.00
281.97	3595.00
282.44	3537.00
282.91	3516.00
283.39	3526.00
283.86	3514.00
284.33	3458.00
284.81	3519.00
285.28	3490.00
285.75	3472.00
286.23	3529.00
286.70	3427.00
287.17	3483.00
287.65	3547.00
288.12	3487.00
288.59	3524.00
289.07	3374.00
289.54	3563.00
290.01	3433.00
290.48	3460.00
290.96	3460.00
291.43	3491.00
291.90	3574.00
292.38	3462.00
292.85	3559.00
293.32	3493.00
293.79	3504.00
294.27	3474.00
294.74	3483.00
295.21	3466.00
295.69	3480.00
296.16	3587.00
296.63	3549.00
297.10	3511.00
297.58	3536.00
298.05	3510.00
298.52	3447.00
298.99	3581.00
299.47	3443.00
299.94	3513.00
300.41	3476.00
300.88	3493.00
301.36	3492.00
301.83	3506.00
302.30	3462.00
302.77	3514.00
303.25	3514.00
303.72	3434.00
304.19	3468.00
304.66	3435.00
305.13	3504.00
305.61	3473.00
306.08	3541.00
306.55	3559.00
307.02	3498.00
307.49	3498.00
307.97	3476.00
308.44	3487.00
308.91	3536.00
309.38	3538.00
309.86	3492.00
310.33	3486.00
310.80	3501.00
311.27	3467.00
311.74	3547.00
312.21	3481.00
312.69	3597.00
313.16	3440.00
313.63	3484.00
314.10	3489.00
314.57	3459.00
315.05	3495.00
315.52	3549.00
315.99	3529.00
316.46	3514.00
316.93	3559.00
317.40	3511.00
317.88	3645.00
318.35	3514.00
318.82	3528.00
319.29	3460.00
319.76	3578.00
320.23	3613.00
320.70	3527.00
321.18	3522.00
321.65	3439.00
322.12	3475.00
322.59	3594.00
323.06	3496.00
323.53	3667.00
324.00	3469.00
324.48	3517.00
324.95	3533.00
325.42	3496.00
325.89	3546.00
326.36	3498.00
326.83	3549.00
327.30	3537.00
327.77	3551.00
328.24	3546.00
328.72	3528.00
329.19	3472.00
329.66	3511.00
330.13	3525.00
330.60	3559.00
331.07	3550.00
331.54	3608.00
332.01	3501.00
332.48	3623.00
332.95	3588.00
333.43	3565.00
333.90	3573.00
334.37	3571.00
334.84	3563.00
335.31	3716.00
335.78	3478.00
336.25	3501.00
336.72	3494.00
337.19	3517.00
337.66	3533.00
338.13	3476.00
338.60	3600.00
339.07	3585.00
339.54	3471.00
340.01	3506.00
340.49	3435.00
340.96	3544.00
341.43	3565.00
341.90	3458.00
342.37	3535.00
342.84	3554.00
343.31	3513.00
343.78	3498.00
344.25	3552.00
344.72	3516.00
345.19	3536.00
345.66	3577.00
346.13	3484.00
346.60	3510.00
347.07	3608.00
347.54	3511.00
348.01	3581.00
348.48	3505.00
348.95	3502.00
349.42	3565.00
349.89	3539.00
350.36	3513.00
350.83	3491.00
351.30	3522.00
351.77	3621.00
352.24	3597.00
352.71	3508.00
353.18	3552.00
353.65	3540.00
354.12	3552.00
354.59	3520.00
355.06	3578.00
355.53	3582.00
356.00	3512.00
356.47	3613.00
356.94	3501.00
357.41	3652.00
357.88	3546.00
358.35	3467.00
358.82	3481.00
359.28	3525.00
359.75	3502.00
360.22	3565.00
360.69	3586.00
361.16	3526.00
361.63	3515.00
362.10	3567.00
362.57	3534.00
363.04	3510.00
363.51	3653.00
363.98	3523.00
364.45	3504.00
364.92	3586.00
365.39	3545.00
365.86	3459.00
366.32	3520.00
366.79	3538.00
367.26	4407.00
367.73	3889.00
368.20	3471.00
368.67	3585.00
369.14	3527.00
369.61	3601.00
370.08	3545.00
370.55	3498.00
371.02	4339.00
371.48	3561.00
371.95	3495.00
372.42	3430.00
372.89	3503.00
373.36	3580.00
373.83	3479.00
374.30	3491.00
374.77	3582.00
375.23	3462.00
375.70	3565.00
376.17	3495.00
376.64	3515.00
377.11	3478.00
377.58	3566.00
378.05	3567.00
378.51	3538.00
378.98	3532.00
379.45	3481.00
379.92	3583.00
380.39	3665.00
380.86	3518.00
381.33	3563.00
381.79	3567.00
382.26	3460.00
382.73	3509.00
383.20	3537.00
383.67	3567.00
384.14	3532.00
384.60	3751.00
385.07	3530.00
385.54	3538.00
386.01	3523.00
386.48	3623.00
386.94	3496.00
387.41	3456.00
387.88	3579.00
388.35	3517.00
388.82	3559.00
389.28	3512.00
389.75	3555.00
390.22	3533.00
390.69	3540.00
391.16	3545.00
391.62	3571.00
392.09	3558.00
392.56	3506.00
393.03	3533.00
393.50	3651.00
393.96	3531.00
394.43	3589.00
394.90	3472.00
395.37	3581.00
395.83	3737.00
396.30	3500.00
396.77	3547.00
397.24	3577.00
397.70	3494.00
398.17	3532.00
398.64	3496.00
399.11	3520.00
399.57	3616.00
400.04	3511.00
400.51	3562.00
400.98	3542.00
401.44	3554.00
401.91	3521.00
402.38	3549.00
402.84	3531.00
403.31	3560.00
403.78	3526.00
404.25	3650.00
404.71	3596.00
405.18	3587.00
405.65	3507.00
406.12	3553.00
406.58	3580.00
407.05	3662.00
407.52	3510.00
407.98	4085.00
408.45	3505.00
408.92	3490.00
409.38	3579.00
409.85	3487.00
410.32	3640.00
410.78	3490.00
411.25	3641.00
411.72	3538.00
412.18	3498.00
412.65	3589.00
413.12	3600.00
413.59	3571.00
414.05	3578.00
414.52	3703.00
414.98	3563.00
415.45	3632.00
415.92	3562.00
416.38	3581.00
416.85	3708.00
417.32	3598.00
417.78	3573.00
418.25	3583.00
418.72	3568.00
419.18	3649.00
419.65	3569.00
420.12	3658.00
420.58	3553.00
421.05	3607.00
421.51	3548.00
421.98	3641.00
422.45	3607.00
422.91	3600.00
423.38	3641.00
423.85	3623.00
424.31	3619.00
424.78	3681.00
425.24	3628.00
425.71	3675.00
426.18	3604.00
426.64	3712.00
427.11	3673.00
427.57	3701.00
428.04	3583.00
428.51	3636.00
428.97	3629.00
429.44	3656.00
429.90	3623.00
430.37	3748.00
430.83	3587.00
431.30	3637.00
431.77	3726.00
432.23	3681.00
432.70	3679.00
433.16	3633.00
433.63	3697.00
434.09	3631.00
434.56	3743.00
435.03	3707.00
435.49	3691.00
435.96	3703.00
436.42	3653.00
436.89	3760.00
437.35	3723.00
437.82	3691.00
438.28	3621.00
438.75	3694.00
439.21	3895.00
439.68	3720.00
440.14	3748.00
440.61	3777.00
441.07	3680.00
441.54	3731.00
442.00	3819.00
442.47	3703.00
442.94	3740.00
443.40	3701.00
443.87	3643.00
444.33	3769.00
444.80	3779.00
445.26	3775.00
445.73	3740.00
446.19	3738.00
446.65	3730.00
447.12	3826.00
447.58	3754.00
448.05	3732.00
448.51	3784.00
448.98	3811.00
449.44	3761.00
449.91	3764.00
450.37	3765.00
450.84	3764.00
451.30	3802.00
451.77	3809.00
452.23	3726.00
452.70	3828.00
453.16	3759.00
453.62	3742.00
454.09	3738.00
454.55	3765.00
455.02	3739.00
455.48	3760.00
455.95	3824.00
456.41	3726.00
456.88	3823.00
457.34	3815.00
457.80	3763.00
458.27	3724.00
458.73	3777.00
459.20	3800.00
459.66	3803.00
460.13	3721.00
460.59	3687.00
461.05	3811.00
461.52	3813.00
461.98	3689.00
462.45	3672.00
462.91	3797.00
463.37	3708.00
463.84	3712.00
464.30	3731.00
464.76	3669.00
465.23	3687.00
465.69	3734.00
466.16	3717.00
466.62	3748.00
467.08	3723.00
467.55	3693.00
468.01	3713.00
468.48	3683.00
468.94	3683.00
469.40	3613.00
469.87	3693.00
470.33	3701.00
470.79	3639.00
471.26	3692.00
471.72	3614.00
472.18	3677.00
472.65	3673.00
473.11	3695.00
473.57	3680.00
474.04	3677.00
474.50	3683.00
474.96	3632.00
475.43	3699.00
475.89	3629.00
476.35	3656.00
476.82	3640.00
477.28	3676.00
477.74	3727.00
478.21	3717.00
478.67	3726.00
479.13	3615.00
479.59	3794.00
480.06	3714.00
480.52	3693.00
480.98	3640.00
481.45	3664.00
481.91	3685.00
482.37	3670.00
482.84	3670.00
483.30	3611.00
483.76	3615.00
484.22	3743.00
484.69	3636.00
485.15	3610.00
485.61	3558.00
486.07	3583.00
486.54	3568.00
487.00	3649.00
487.46	3590.00
487.92	3617.00
488.39	3643.00
488.85	3679.00
489.31	3679.00
489.77	3683.00
490.24	3608.00
490.70	3679.00
491.16	3596.00
491.62	3623.00
492.09	3590.00
492.55	3722.00
493.01	3683.00
493.47	3715.00
493.94	3673.00
494.40	3671.00
494.86	3657.00
495.32	3663.00
495.78	3727.00
496.25	3671.00
496.71	3709.00
497.17	3772.00
497.63	3777.00
498.09	3687.00
498.56	3718.00
499.02	3690.00
499.48	3847.00
499.94	3740.00
500.40	3685.00
500.87	3714.00
501.33	3727.00
501.79	3751.00
502.25	3751.00
502.71	4053.00
503.17	3763.00
503.64	3787.00
504.10	3793.00
504.56	3860.00
505.02	3826.00
505.48	3790.00
505.94	3843.00
506.40	3904.00
506.87	3867.00
507.33	3889.00
507.79	3882.00
508.25	3920.00
508.71	3915.00
509.17	3961.00
509.63	3937.00
510.10	3979.00
510.56	3978.00
511.02	4033.00
511.48	4086.00
511.94	4010.00
512.40	4067.00
512.86	4083.00
513.32	4076.00
513.78	4074.00
514.25	4222.00
514.71	4872.00
515.17	4155.00
515.63	4274.00
516.09	4246.00
516.55	4253.00
517.01	4332.00
517.47	4329.00
517.93	4305.00
518.39	4487.00
518.85	4428.00
519.32	4401.00
519.78	4497.00
520.24	4548.00
520.70	4634.00
521.16	4701.00
521.62	4731.00
522.08	4715.00
522.54	4737.00
523.00	4864.00
523.46	4851.00
523.92	4900.00
524.38	5059.00
524.84	4999.00
525.30	5011.00
525.76	5033.00
526.22	4935.00
526.68	4889.00
527.14	5012.00
527.60	5096.00
528.06	5203.00
528.52	5213.00
528.98	5267.00
529.44	5247.00
529.90	5293.00
530.36	5443.00
530.82	5368.00
531.28	5457.00
531.74	5424.00
532.20	5397.00
532.66	5367.00
533.12	5460.00
533.58	5440.00
534.04	5432.00
534.50	5524.00
534.96	5517.00
535.42	5615.00
535.88	5578.00
536.34	5641.00
536.80	5479.00
537.26	5551.00
537.72	5661.00
538.18	5729.00
538.64	5727.00
539.10	5645.00
539.56	5841.00
540.02	5511.00
540.48	5680.00
540.94	5646.00
541.40	5666.00
541.86	5748.00
542.32	5791.00
542.78	5675.00
543.24	5892.00
543.69	5745.00
544.15	5901.00
544.61	5793.00
545.07	5848.00
545.53	5800.00
545.99	5864.00
546.45	5871.00
546.91	5849.00
547.37	5855.00
547.83	5800.00
548.29	5801.00
548.74	5838.00
549.20	5923.00
549.66	5987.00
550.12	5945.00
550.58	5857.00
551.04	5985.00
551.50	5910.00
551.96	6052.00
552.42	5964.00
552.87	5896.00
553.33	6007.00
553.79	5982.00
554.25	5947.00
554.71	5951.00
555.17	5993.00
555.63	6035.00
556.08	5892.00
556.54	5903.00
557.00	5845.00
557.46	5925.00
557.92	5943.00
558.38	5800.00
558.83	5758.00
559.29	5793.00
559.75	5850.00
560.21	5775.00
560.67	5878.00
561.13	5847.00
561.58	5753.00
562.04	5717.00
562.50	5772.00
562.96	5825.00
563.42	5803.00
563.87	5691.00
564.33	5745.00
564.79	5713.00
565.25	5626.00
565.71	5541.00
566.16	5586.00
566.62	5633.00
567.08	5601.00
567.54	5627.00
568.00	5567.00
568.45	5462.00
568.91	5493.00
569.37	5460.00
569.83	5437.00
570.28	5383.00
570.74	5406.00
571.20	5380.00
571.66	5410.00
572.11	5316.00
572.57	5356.00
573.03	5330.00
573.49	5261.00
573.94	5272.00
574.40	5326.00
574.86	5245.00
575.32	5141.00
575.77	5195.00
576.23	5101.00
576.69	5218.00
577.15	5143.00
577.60	5057.00
578.06	4989.00
578.52	5081.00
578.97	5082.00
579.43	5015.00
579.89	5095.00
580.34	5084.00
580.80	4955.00
581.26	5028.00
581.72	4967.00
582.17	4992.00
582.63	5006.00
583.09	4943.00
583.54	4937.00
584.00	4951.00
584.46	4929.00
584.91	4879.00
585.37	4983.00
585.83	4818.00
586.28	4871.00
586.74	4949.00
587.20	4846.00
587.65	4951.00
588.11	4820.00
588.57	4713.00
589.02	4656.00
589.48	4590.00
589.94	4731.00
590.39	4810.00
590.85	4727.00
591.30	4781.00
591.76	4823.00
592.22	4717.00
592.67	4761.00
593.13	4753.00
593.59	4762.00
594.04	4737.00
594.50	4727.00
594.95	4760.00
595.41	4697.00
595.87	4667.00
596.32	4831.00
596.78	4739.00
597.23	4727.00
597.69	4699.00
598.15	4637.00
598.60	4713.00
599.06	4739.00
599.51	4613.00
599.97	4721.00
600.43	4743.00
600.88	4669.00
601.34	4712.00
601.79	4601.00
602.25	4763.00
602.70	4612.00
603.16	4716.00
603.61	4615.00
604.07	4606.00
604.53	4691.00
604.98	4636.00
605.44	4640.00
605.89	4618.00
606.35	4552.00
606.80	4610.00
607.26	4610.00
607.71	4601.00
608.17	4547.00
608.62	4563.00
609.08	4626.00
609.53	4559.00
609.99	4523.00
610.44	4546.00
610.90	4493.00
611.35	4443.00
611.81	4574.00
612.26	4466.00
612.72	4491.00
613.17	4602.00
613.63	4357.00
614.08	4340.00
614.54	4413.00
614.99	4383.00
615.45	4445.00
615.90	4334.00
616.36	4259.00
616.81	4332.00
617.27	4323.00
617.72	4426.00
618.18	4323.00
618.63	4319.00
619.09	4318.00
619.54	4340.00
619.99	4348.00
620.45	4389.00
620.90	4393.00
621.36	4329.00
621.81	4307.00
622.27	4365.00
622.72	4313.00
623.18	4333.00
623.63	4308.00
624.08	4329.00
624.54	4180.00
624.99	4173.00
625.45	4278.00
625.90	4171.00
626.35	4273.00
626.81	4266.00
627.26	4236.00
627.72	4292.00
628.17	4275.00
628.62	4196.00
629.08	4183.00
629.53	4246.00
629.99	4220.00
630.44	4213.00
630.89	4228.00
631.35	4279.00
631.80	4216.00
632.26	4308.00
632.71	4196.00
633.16	4205.00
633.62	4232.00
634.07	4248.00
634.52	4169.00
634.98	4235.00
635.43	4178.00
635.88	4177.00
636.34	4242.00
636.79	4200.00
637.24	4141.00
637.70	4244.00
638.15	4214.00
638.60	4161.00
639.06	4189.00
639.51	4093.00
639.96	4074.00
640.42	4169.00
640.87	4125.00
641.32	4025.00
641.78	4065.00
642.23	4116.00
642.68	4015.00
643.14	4019.00
643.59	4073.00
644.04	4003.00
644.49	3977.00
644.95	3975.00
645.40	3915.00
645.85	3964.00
646.31	3970.00
646.76	3979.00
647.21	3989.00
647.66	3949.00
648.12	3892.00
648.57	3856.00
649.02	3916.00
649.47	3878.00
649.93	4039.00
650.38	3854.00
650.83	3865.00
651.28	3841.00
651.74	3836.00
652.19	3803.00
652.64	3899.00
653.09	3849.00
653.55	3842.00
654.00	3886.00
654.45	3860.00
654.90	3779.00
655.35	3740.00
655.81	3763.00
656.26	3751.00
656.71	3716.00
657.16	3806.00
657.62	3791.00
658.07	3781.00
658.52	3816.00
658.97	3769.00
659.42	3947.00
659.88	3757.00
660.33	3823.00
660.78	3756.00
661.23	3711.00
661.68	3725.00
662.13	3669.00
662.59	3653.00
663.04	3712.00
663.49	3658.00
663.94	3690.00
664.39	3651.00
664.84	3639.00
665.30	3664.00
665.75	3599.00
666.20	3644.00
666.65	3657.00
667.10	3772.00
667.55	3712.00
668.00	3577.00
668.46	3629.00
668.91	3569.00
669.36	3723.00
669.81	3493.00
670.26	3565.00
670.71	3656.00
671.16	3585.00
671.61	3698.00
672.06	3705.00
672.52	3595.00
672.97	3607.00
673.42	3673.00
673.87	3747.00
674.32	3609.00
674.77	3627.00
675.22	3494.00
675.67	3534.00
676.12	3587.00
676.57	3577.00
677.02	3580.00
677.47	3530.00
677.93	3681.00
678.38	3578.00
678.83	3563.00
679.28	3591.00
679.73	3596.00
680.18	3588.00
680.63	3619.00
681.08	3514.00
681.53	3489.00
681.98	3555.00
682.43	3598.00
682.88	3616.00
683.33	3622.00
683.78	3615.00
684.23	3669.00
684.68	3627.00
685.13	3659.00
685.58	3668.00
686.03	3647.00
686.48	3608.00
686.93	3580.00
687.38	3575.00
687.83	3662.00
688.28	3662.00
688.73	3877.00
689.18	3807.00
689.63	3728.00
690.08	3788.00
690.53	3889.00
690.98	3848.00
691.43	3968.00
691.88	3931.00
692.33	4111.00
692.78	4054.00
693.23	4163.00
693.68	4219.00
694.13	4231.00
694.58	4287.00
695.03	4565.00
695.48	4408.00
695.93	4508.00
696.38	4733.00
696.83	4705.00
697.28	4767.00
697.72	4816.00
698.17	4761.00
698.62	4956.00
699.07	4977.00
699.52	5012.00
699.97	5097.00
700.42	5243.00
700.87	5265.00
701.32	5479.00
701.77	5330.00
702.22	5563.00
702.67	5496.00
703.11	5659.00
703.56	5753.00
704.01	5838.00
704.46	5878.00
704.91	6069.00
705.36	6130.00
705.81	6132.00
706.26	6195.00
706.70	6332.00
707.15	6428.00
707.60	6441.00
708.05	6482.00
708.50	6626.00
708.95	6653.00
709.40	6737.00
709.84	6761.00
710.29	6845.00
710.74	6922.00
711.19	6967.00
711.64	7117.00
712.09	7163.00
712.53	7143.00
712.98	7324.00
713.43	7335.00
713.88	7416.00
714.33	7386.00
714.78	7376.00
715.22	7431.00
715.67	7457.00
716.12	7335.00
716.57	7199.00
717.02	6965.00
717.46	6911.00
717.91	6869.00
718.36	6878.00
718.81	6739.00
719.26	6765.00
719.70	6893.00
720.15	6871.00
720.60	7239.00
721.05	7575.00
721.49	7859.00
721.94	8061.00
722.39	7974.00
722.84	7757.00
723.28	7629.00
723.73	7538.00
724.18	7527.00
724.63	7722.00
725.07	7663.00
725.52	7805.00
725.97	7907.00
726.42	7944.00
726.86	8118.00
727.31	7920.00
727.76	8135.00
728.21	8233.00
728.65	8150.00
729.10	8135.00
729.55	8229.00
729.99	8436.00
730.44	8439.00
730.89	8525.00
731.33	8632.00
731.78	8813.00
732.23	9022.00
732.68	9133.00
733.12	9353.00
733.57	9421.00
734.02	9502.00
734.46	9558.00
734.91	9611.00
735.36	9628.00
735.80	9754.00
736.25	9746.00
736.70	9761.00
737.14	9989.00
737.59	10027.00
738.04	9963.00
738.48	9958.00
738.93	9861.00
739.37	9946.00
739.82	10172.00
740.27	10234.00
740.71	10251.00
741.16	10170.00
741.61	10270.00
742.05	10222.00
742.50	10312.00
742.94	10440.00
743.39	10532.00
743.84	10444.00
744.28	10584.00
744.73	10579.00
745.18	10656.00
745.62	10689.00
746.07	10763.00
746.51	10554.00
746.96	10643.00
747.40	10633.00
747.85	10695.00
748.30	10609.00
748.74	10555.00
749.19	10643.00
749.63	10696.00
750.08	10679.00
750.52	10603.00
750.97	10637.00
751.42	10640.00
751.86	10570.00
752.31	10607.00
752.75	10689.00
753.20	10673.00
753.64	10561.00
754.09	10645.00
754.53	10573.00
754.98	10638.00
755.42	10655.00
755.87	10674.00
756.31	10661.00
756.76	10577.00
757.20	10493.00
757.65	10443.00
758.09	10327.00
758.54	9950.00
758.98	9231.00
759.43	7704.00
759.87	6253.00
760.32	5358.00
760.76	5290.00
761.21	5864.00
761.65	6759.00
762.10	6958.00
762.54	6592.00
762.99	6365.00
763.43	6561.00
763.88	6770.00
764.32	7131.00
764.77	7581.00
765.21	7942.00
765.66	8331.00
766.10	8764.00
766.54	9088.00
766.99	9393.00
767.43	9607.00
767.88	9791.00
768.32	9928.00
768.77	10013.00
769.21	10319.00
769.66	10243.00
770.10	10439.00
770.54	10397.00
770.99	10448.00
771.43	10509.00
771.88	10425.00
772.32	10395.00
772.76	10320.00
773.21	10475.00
773.65	10423.00
774.10	10321.00
774.54	10383.00
774.98	10380.00
775.43	10501.00
775.87	10494.00
776.31	10508.00
776.76	10488.00
777.20	10601.00
777.65	10434.00
778.09	10365.00
778.53	10297.00
778.98	10379.00
779.42	10452.00
779.86	10402.00
780.31	10208.00
780.75	10353.00
781.19	10428.00
781.64	10455.00
782.08	10506.00
782.52	10339.00
782.97	10357.00
783.41	10341.00
783.85	10237.00
784.30	10081.00
784.74	10189.00
785.18	10060.00
785.63	9973.00
786.07	10225.00
786.51	10129.00
786.95	10069.00
787.40	10072.00
787.84	9936.00
788.28	9962.00
788.73	10093.00
789.17	9777.00
789.61	9857.00
790.05	9665.00
790.50	9594.00
790.94	9730.00
791.38	9769.00
791.82	9622.00
792.27	9756.00
792.71	9681.00
793.15	9956.00
793.59	9819.00
794.04	9763.00
794.48	9668.00
794.92	9604.00
795.36	9508.00
795.81	9473.00
796.25	9385.00
796.69	9470.00
797.13	9513.00
797.57	9536.00
798.02	9716.00
798.46	9751.00
798.90	9696.00
799.34	9516.00
799.79	9502.00
800.23	9403.00
800.67	9305.00
801.11	9322.00
801.55	9324.00
801.99	9300.00
802.44	9374.00
802.88	9459.00
803.32	9456.00
803.76	9517.00
804.20	9460.00
804.64	9439.00
805.09	9439.00
805.53	9547.00
805.97	9501.00
806.41	9469.00
806.85	9372.00
807.29	9189.00
807.74	9053.00
808.18	9164.00
808.62	9097.00
809.06	9156.00
809.50	9157.00
809.94	9096.00
810.38	9162.00
810.82	9239.00
811.27	9245.00
811.71	8974.00
812.15	8858.00
812.59	8713.00
813.03	8683.00
813.47	8310.00
813.91	8044.00
814.35	8119.00
814.79	7977.00
815.23	7975.00
815.67	7876.00
816.12	7907.00
816.56	7823.00
817.00	7903.00
817.44	8029.00
817.88	8047.00
818.32	7886.00
818.76	7956.00
819.20	7961.00
819.64	8009.00
820.08	8066.00
820.52	8193.00
820.96	8277.00
821.40	8247.00
821.84	8131.00
822.28	7719.00
822.72	7691.00
823.16	7643.00
823.60	7884.00
824.04	8357.00
824.48	8385.00
824.92	8395.00
825.36	8489.00
825.80	8227.00
826.24	8241.00
826.68	8155.00
827.12	8134.00
827.56	8125.00
828.00	7991.00
828.44	8081.00
828.88	8292.00
829.32	8255.00
829.76	8165.00
830.20	8361.00
830.64	8265.00
831.08	8265.00
831.52	8142.00
831.96	8027.00
832.40	7941.00
832.84	8113.00
833.28	8160.00
833.72	8296.00
834.16	8324.00
834.60	8535.00
835.04	8611.00
835.48	8717.00
835.91	8523.00
836.35	8528.00
836.79	8525.00
837.23	8541.00
837.67	8339.00
838.11	8346.00
838.55	8405.00
838.99	8379.00
839.43	8619.00
839.87	8705.00
840.30	8572.00
840.74	8663.00
841.18	8651.00
841.62	8819.00
842.06	8781.00
842.50	8699.00
842.94	8734.00
843.38	8624.00
843.81	8495.00
844.25	8364.00
844.69	8339.00
845.13	8466.00
845.57	8407.00
846.01	8480.00
846.45	8484.00
846.88	8596.00
847.32	8582.00
847.76	8674.00
848.20	8743.00
848.64	8619.00
849.08	8539.00
849.51	8594.00
849.95	8399.00
850.39	8484.00
850.83	8531.00
851.27	8391.00
851.70	8361.00
852.14	8374.00
852.58	8283.00
853.02	7961.00
853.46	7914.00
853.89	7835.00
854.33	7884.00
854.77	8113.00
855.21	8327.00
855.65	8625.00
856.08	8720.00
856.52	8710.00
856.96	8715.00
857.40	8571.00
857.83	8421.00
858.27	8356.00
858.71	8188.00
859.15	8219.00
859.58	8213.00
860.02	8299.00
860.46	8484.00
860.89	8516.00
861.33	8511.00
861.77	8617.00
862.21	8698.00
862.64	8712.00
863.08	8735.00
863.52	8649.00
863.95	8519.00
864.39	8397.00
864.83	8104.00
865.27	7859.00
865.70	7860.00
866.14	7681.00
866.58	7765.00
867.01	7989.00
867.45	8215.00
867.89	8259.00
868.32	8505.00
868.76	8545.00
869.20	8624.00
869.63	8650.00
870.07	8591.00
870.51	8322.00
870.94	8196.00
871.38	8088.00
871.82	7985.00
872.25	7972.00
872.69	7969.00
873.13	7995.00
873.56	8108.00
874.00	8182.00
874.43	8212.00
874.87	8260.00
875.31	8389.00
875.74	8327.00
876.18	8401.00
876.61	8452.00
877.05	8273.00
877.49	8228.00
877.92	8169.00
878.36	8084.00
878.79	7991.00
879.23	7991.00
879.67	7748.00
880.10	7854.00
880.54	7816.00
880.97	7907.00
881.41	8085.00
881.84	8130.00
882.28	8285.00
882.72	8350.00
883.15	8479.00
883.59	8443.00
884.02	8512.00
884.46	8417.00
884.89	8318.00
885.33	8190.00
885.76	8001.00
886.20	7928.00
886.63	7864.00
887.07	7711.00
887.50	7691.00
887.94	7851.00
888.37	7819.00
888.81	8039.00
889.24	7920.00
889.68	8071.00
890.11	8083.00
890.55	8263.00
890.98	8233.00
891.42	8155.00
891.85	8106.00
892.29	8049.00
892.72	7904.00
893.16	7769.00
893.59	7744.00
894.03	7509.00
894.46	7359.00
894.90	7206.00
895.33	6920.00
895.77	7002.00
896.20	6882.00
896.63	6921.00
897.07	6931.00
897.50	6872.00
897.94	6961.00
898.37	7151.00
898.81	6773.00
899.24	6771.00
899.68	7075.00
900.11	6987.00
900.54	6827.00
900.98	6765.00
901.41	6802.00
901.85	6839.00
902.28	6841.00
902.71	6858.00
903.15	7027.00
903.58	7235.00
904.02	7196.00
904.45	7127.00
904.88	7138.00
905.32	7067.00
905.75	7189.00
906.18	6957.00
906.62	7027.00
907.05	6857.00
907.48	6847.00
907.92	6853.00
908.35	6838.00
908.79	6759.00
909.22	6671.00
909.65	6611.00
910.09	6649.00
910.52	6753.00
910.95	6606.00
911.38	6631.00
911.82	6545.00
912.25	6523.00
912.68	6639.00
913.12	6661.00
913.55	6633.00
913.98	6727.00
914.42	6980.00
914.85	6836.00
915.28	6771.00
915.72	6707.00
916.15	6685.00
916.58	6759.00
917.01	6512.00
917.45	6506.00
917.88	6543.00
918.31	6647.00
918.74	6777.00
919.18	6861.00
919.61	6881.00
920.04	7005.00
920.47	7081.00
920.91	7068.00
921.34	7010.00
921.77	7037.00
922.20	7064.00
922.64	7093.00
923.07	7149.00
923.50	7023.00
923.93	6870.00
924.37	6954.00
924.80	6799.00
925.23	6720.00
925.66	6661.00
926.09	6387.00
926.53	6355.00
926.96	6161.00
927.39	6117.00
927.82	5910.00
928.25	5751.00
928.69	5727.00
929.12	5577.00
929.55	5444.00
929.98	5336.00
930.41	5151.00
930.84	5090.00
931.28	4835.00
931.71	4825.00
932.14	4540.00
932.57	4532.00
933.00	4384.00
933.43	4388.00
933.86	4299.00
934.30	4179.00
934.73	4380.00
935.16	4213.00
935.59	4169.00
936.02	4215.00
936.45	4209.00
936.88	4183.00
937.31	4358.00
937.75	4378.00
938.18	4541.00
938.61	4607.00
939.04	4656.00
939.47	4707.00
939.90	4583.00
940.33	4578.00
940.76	4304.00
941.19	4297.00
941.62	4231.00
942.05	4249.00
942.48	4104.00
942.91	4036.00
943.35	4118.00
943.78	4063.00
944.21	4119.00
944.64	4184.00
945.07	4205.00
945.50	4185.00
945.93	4191.00
946.36	4324.00
946.79	4291.00
947.22	4405.00
947.65	4368.00
948.08	4234.00
948.51	4407.00
948.94	4395.00
949.37	4463.00
949.80	4346.00
950.23	4299.00
950.66	4415.00
951.09	4388.00
951.52	4254.00
951.95	4356.00
952.38	4310.00
952.81	4529.00
953.24	4571.00
953.67	4593.00
954.10	4525.00
954.53	4613.00
954.96	4645.00
955.39	4679.00
955.82	4738.00
956.25	4746.00
956.68	4939.00
957.11	4792.00
957.53	4810.00
957.96	4749.00
958.39	4623.00
958.82	4652.00
959.25	4668.00
959.68	4731.00
960.11	4757.00
960.54	4903.00
960.97	4943.00
961.40	5064.00
961.83	5054.00
962.26	4995.00
962.68	5269.00
963.11	5248.00
963.54	5296.00
963.97	5334.00
964.40	5233.00
964.83	5363.00
965.26	5421.00
965.69	5356.00
966.11	5379.00
966.54	5311.00
966.97	5431.00
967.40	5581.00
967.83	5707.00
968.26	5496.00
968.69	5495.00
969.11	5584.00
969.54	5515.00
969.97	5535.00
970.40	5601.00
970.83	5588.00
971.26	5588.00
971.68	5586.00
972.11	5650.00
972.54	5662.00
972.97	5705.00
973.40	5611.00
973.82	5653.00
974.25	5626.00
974.68	5611.00
975.11	5563.00
975.54	5478.00
975.96	5443.00
976.39	5453.00
976.82	5561.00
977.25	5522.00
977.67	5438.00
978.10	5469.00
978.53	5475.00
978.96	5638.00
979.38	5646.00
979.81	5613.00
980.24	5769.00
980.67	5885.00
981.09	5849.00
981.52	5938.00
981.95	5883.00
982.38	5930.00
982.80	5954.00
983.23	6049.00
983.66	6001.00
984.08	5913.00
984.51	5815.00
984.94	5910.00
985.37	5888.00
985.79	5802.00
986.22	5764.00
986.65	5743.00
987.07	5730.00
987.50	5691.00
987.93	5697.00
988.35	5753.00
988.78	5646.00
989.21	5746.00
989.63	5837.00
990.06	5749.00
990.49	5913.00
990.91	6081.00
991.34	5955.00
991.77	5980.00
992.19	5960.00
992.62	5934.00
993.05	5933.00
993.47	5969.00
993.90	5943.00
994.32	5889.00
994.75	5777.00
995.18	5721.00
995.60	5594.00
996.03	5570.00
996.45	5732.00
996.88	5644.00
997.31	5590.00
997.73	5563.00
998.16	5550.00
998.58	5696.00
999.01	5613.00
999.44	5694.00
999.86	5678.00
1000.29	5740.00
1000.71	5761.00
1001.14	5801.00
1001.56	5758.00
1001.99	5815.00
1002.41	5614.00
1002.84	5624.00
1003.27	5512.00
1003.69	5520.00
1004.12	5525.00
1004.54	5429.00
1004.97	5360.00
1005.39	5277.00
1005.82	5385.00
1006.24	5291.00
1006.67	5259.00
1007.09	5223.00
1007.52	5301.00
1007.94	5275.00
1008.37	5474.00
1008.79	5417.00
1009.22	5389.00
1009.64	5345.00
1010.07	5338.00
1010.49	5388.00
1010.92	5365.00
1011.34	5430.00
1011.77	5364.00
1012.19	5389.00
1012.62	5327.00
1013.04	5288.00
1013.46	5301.00
1013.89	5105.00
1014.31	5212.00
1014.74	5107.00
1015.16	5102.00
1015.59	5050.00
1016.01	5093.00
1016.44	5033.00
1016.86	5933.00
1017.28	5047.00
1017.71	5038.00
1018.13	5237.00
1018.56	5244.00
1018.98	5199.00
1019.40	5205.00
1019.83	5203.00
1020.25	5273.00
1020.68	5225.00
1021.10	5341.00
1021.52	5311.00
1021.95	5497.00
1022.37	5373.00
1022.79	5299.00
1023.22	5269.00
1023.64	5265.00
1024.07	5277.00
1024.49	5233.00
1024.91	5145.00
1025.34	5093.00
1025.76	5278.00
1026.18	5098.00
1026.61	5121.00
1027.03	5120.00
1027.45	5103.00
1027.88	5036.00
1028.30	5165.00
1028.72	5095.00
1029.15	5079.00
1029.57	5178.00
1029.99	5191.00
1030.41	5054.00
1030.84	5092.00
1031.26	5154.00
1031.68	5037.00
1032.11	5063.00
1032.53	5028.00
1032.95	4992.00
1033.37	4994.00
1033.80	5000.00
1034.22	4915.00
1034.64	5006.00
1035.06	4838.00
1035.49	4787.00
1035.91	4823.00
1036.33	4734.00
1036.75	4771.00
1037.18	4818.00
1037.60	4735.00
1038.02	4827.00
1038.44	4792.00
1038.87	4716.00
1039.29	4709.00
1039.71	4794.00
1040.13	4729.00
1040.55	4865.00
1040.98	4834.00
1041.40	4763.00
1041.82	4785.00
1042.24	4735.00
1042.66	4783.00
1043.09	4645.00
1043.51	4578.00
1043.93	4586.00
1044.35	4549.00
1044.77	4583.00
1045.20	4534.00
1045.62	4513.00
1046.04	4519.00
1046.46	4543.00
1046.88	4403.00
1047.30	4477.00
1047.72	4404.00
1048.15	4465.00
1048.57	4401.00
1048.99	4402.00
1049.41	4429.00
1049.83	4477.00
1050.25	4475.00
1050.67	4416.00
1051.09	4387.00
1051.52	4424.00
1051.94	4321.00
1052.36	4335.00
1052.78	4279.00
1053.20	4355.00
1053.62	4362.00
1054.04	4339.00
1054.46	4324.00
1054.88	4375.00
1055.30	4354.00
1055.72	4311.00
1056.14	4211.00
1056.57	4357.00
1056.99	4170.00
1057.41	4216.00
1057.83	4209.00
1058.25	4147.00
1058.67	4151.00
1059.09	4075.00
1059.51	4185.00
1059.93	4100.00
1060.35	4057.00
1060.77	4115.00
1061.19	4135.00
1061.61	4061.00
1062.03	4087.00
1062.45	3995.00
1062.87	4096.00
1063.29	4089.00
1063.71	4012.00
1064.13	3973.00
1064.55	4004.00
1064.97	4076.00
1065.39	4043.00
1065.81	3977.00
1066.23	3979.00
1066.65	3989.00
1067.07	4071.00
1067.49	3979.00
1067.91	3924.00
1068.33	3900.00
1068.75	3997.00
1069.17	3951.00
1069.59	3958.00
1070.00	3855.00
1070.42	3886.00
1070.84	3873.00
1071.26	3801.00
1071.68	3820.00
1072.10	3881.00
1072.52	3871.00
1072.94	3787.00
1073.36	3844.00
1073.78	3839.00
1074.20	3832.00
1074.62	3811.00
1075.03	3778.00
1075.45	3843.00
1075.87	3871.00
1076.29	3836.00
1076.71	3895.00
1077.13	3864.00
1077.55	3771.00
1077.97	3819.00
1078.38	3775.00
1078.80	3774.00
1079.22	3794.00
1079.64	3772.00
1080.06	3731.00
1080.48	3724.00
1080.89	3741.00
1081.31	3749.00
1081.73	3696.00
1082.15	3750.00
1082.57	3791.00
1082.99	3718.00
1083.40	3683.00
1083.82	3746.00
1084.24	3620.00
1084.66	3631.00
1085.08	3667.00
1085.49	3597.00
1085.91	3641.00
1086.33	4923.00
1086.75	3673.00
1087.17	3602.00
1087.58	3619.00
1088.00	3612.00
1088.42	3720.00
1088.84	3612.00
1089.25	3572.00
1089.67	3602.00
1090.09	3594.00
1090.51	3594.00
1090.92	3637.00
1091.34	3515.00
1091.76	3558.00
1092.18	3521.00
1092.59	3520.00
1093.01	3541.00
1093.43	3533.00
1093.84	3508.00
1094.26	3489.00
1094.68	3501.00
1095.10	3462.00
1095.51	3543.00
1095.93	3505.00
1096.35	3552.00
1096.76	3553.00
1097.18	3556.00
1097.60	3481.00
1098.01	3488.00
1098.43	3441.00
1098.85	3480.00
1099.26	3468.00
1099.68	3485.00
1100.10	3440.00
1100.51	3458.00
1100.93	3464.00
1101.35	3484.00
1101.76	3453.00
1102.18	3931.00
1102.60	3488.00
1103.01	3344.00
1103.43	3411.00
1103.84	3455.00
1104.26	3385.00
1104.68	3419.00
1105.09	3371.00
1105.51	3345.00
1105.92	3464.00
1106.34	3352.00
1106.76	3411.00
1107.17	3375.00
1107.59	3361.00
1108.00	3296.00
1108.42	3343.00
1108.83	3288.00
1109.25	3279.00
1109.67	3279.00
1110.08	3329.00
1110.50	3284.00
1110.91	3305.00
1111.33	3229.00
1111.74	3298.00
1112.16	3344.00
1112.57	3297.00
1112.99	3287.00
1113.41	3293.00
1113.82	3260.00
1114.24	3276.00
1114.65	3269.00
1115.07	3140.00
1115.48	3096.00
1115.90	2191.00
1116.31	2215.00
1116.73	2211.00
1117.14	2208.00
>>>>>End Processed Spectral Data<<<<<
