SpectraSuite Data File
++++++++++++++++++++++++++++++++++++
Date: Tue May 29 13:10:52 EEST 2018
User: CanSEE
Dark Spectrum Present: No
Reference Spectrum Present: No
Number of Sampled Component Spectra: 1
Spectrometers: MAYP11278
Integration Time (usec): 230000 (MAYP11278)
Spectra Averaged: 1 (MAYP11278)
Boxcar Smoothing: 0 (MAYP11278)
Correct for Electrical Dark: No (MAYP11278)
Strobe/Lamp Enabled: No (MAYP11278)
Correct for Detector Non-linearity: No (MAYP11278)
Correct for Stray Light: No (MAYP11278)
Number of Pixels in Processed Spectrum: 2068
>>>>>Begin Processed Spectral Data<<<<<
187.82	2337.00
188.30	2233.00
188.78	2212.00
189.26	2211.00
189.73	3232.00
190.21	3274.00
190.69	3413.00
191.17	3415.00
191.64	3481.00
192.12	3433.00
192.60	3367.00
193.07	3368.00
193.55	3395.00
194.03	3408.00
194.51	3440.00
194.98	3383.00
195.46	3456.00
195.94	3411.00
196.42	3400.00
196.89	3481.00
197.37	3385.00
197.85	3369.00
198.32	3399.00
198.80	3345.00
199.28	3455.00
199.76	3422.00
200.23	3425.00
200.71	3407.00
201.19	3443.00
201.66	3433.00
202.14	3418.00
202.62	3426.00
203.09	3455.00
203.57	3369.00
204.05	3488.00
204.53	3503.00
205.00	3383.00
205.48	3389.00
205.96	3493.00
206.43	3412.00
206.91	3454.00
207.39	3530.00
207.86	3447.00
208.34	3459.00
208.82	3405.00
209.29	3434.00
209.77	3455.00
210.25	3447.00
210.72	3438.00
211.20	3432.00
211.68	3443.00
212.15	3362.00
212.63	3541.00
213.11	3471.00
213.58	3435.00
214.06	3503.00
214.53	3462.00
215.01	3499.00
215.49	3459.00
215.96	3427.00
216.44	3441.00
216.92	3482.00
217.39	3403.00
217.87	3417.00
218.35	3469.00
218.82	3387.00
219.30	3437.00
219.77	3431.00
220.25	3456.00
220.73	3515.00
221.20	3419.00
221.68	3449.00
222.15	3447.00
222.63	3443.00
223.11	3443.00
223.58	3465.00
224.06	3450.00
224.53	3444.00
225.01	3413.00
225.49	3419.00
225.96	3413.00
226.44	3439.00
226.91	3466.00
227.39	3441.00
227.87	3485.00
228.34	3460.00
228.82	3444.00
229.29	3468.00
229.77	3421.00
230.24	3420.00
230.72	3450.00
231.20	3508.00
231.67	3449.00
232.15	3449.00
232.62	3405.00
233.10	3476.00
233.57	3469.00
234.05	3588.00
234.53	3472.00
235.00	3410.00
235.48	3431.00
235.95	3469.00
236.43	3496.00
236.90	3555.00
237.38	3421.00
237.85	3440.00
238.33	3443.00
238.80	3467.00
239.28	3423.00
239.75	3415.00
240.23	3498.00
240.71	3525.00
241.18	3467.00
241.66	3440.00
242.13	3466.00
242.61	3496.00
243.08	3397.00
243.56	3449.00
244.03	3498.00
244.51	3503.00
244.98	3433.00
245.46	3483.00
245.93	5265.00
246.41	3370.00
246.88	3451.00
247.36	3469.00
247.83	3479.00
248.31	3425.00
248.78	3378.00
249.26	3455.00
249.73	3516.00
250.21	3480.00
250.68	3510.00
251.16	3438.00
251.63	3590.00
252.10	3509.00
252.58	3416.00
253.05	3495.00
253.53	3471.00
254.00	3461.00
254.48	3453.00
254.95	3487.00
255.43	3513.00
255.90	3436.00
256.38	3485.00
256.85	3522.00
257.33	3493.00
257.80	3618.00
258.27	3486.00
258.75	3415.00
259.22	3422.00
259.70	3489.00
260.17	3522.00
260.65	3466.00
261.12	3444.00
261.59	3478.00
262.07	3425.00
262.54	3479.00
263.02	3535.00
263.49	3394.00
263.97	3456.00
264.44	3495.00
264.91	3457.00
265.39	3489.00
265.86	3524.00
266.34	3511.00
266.81	3450.00
267.28	3478.00
267.76	3457.00
268.23	3485.00
268.71	3357.00
269.18	3394.00
269.65	3415.00
270.13	3456.00
270.60	3522.00
271.08	3427.00
271.55	3463.00
272.02	3437.00
272.50	3446.00
272.97	3393.00
273.44	3469.00
273.92	3608.00
274.39	3472.00
274.87	3459.00
275.34	3426.00
275.81	3463.00
276.29	3466.00
276.76	3475.00
277.23	3388.00
277.71	3387.00
278.18	3380.00
278.65	3520.00
279.13	3362.00
279.60	3410.00
280.07	3707.00
280.55	3723.00
281.02	3729.00
281.50	3571.00
281.97	3568.00
282.44	3499.00
282.91	3485.00
283.39	3480.00
283.86	3426.00
284.33	3459.00
284.81	3533.00
285.28	3468.00
285.75	3497.00
286.23	3509.00
286.70	3443.00
287.17	3530.00
287.65	3513.00
288.12	3478.00
288.59	3499.00
289.07	3358.00
289.54	3511.00
290.01	3435.00
290.48	3503.00
290.96	3437.00
291.43	3516.00
291.90	3559.00
292.38	3455.00
292.85	3507.00
293.32	3457.00
293.79	3515.00
294.27	3472.00
294.74	3466.00
295.21	3503.00
295.69	3499.00
296.16	3555.00
296.63	3519.00
297.10	3489.00
297.58	3528.00
298.05	3505.00
298.52	3493.00
298.99	3572.00
299.47	3453.00
299.94	3500.00
300.41	3464.00
300.88	3517.00
301.36	3504.00
301.83	3519.00
302.30	3451.00
302.77	3504.00
303.25	3544.00
303.72	3453.00
304.19	3457.00
304.66	3455.00
305.13	3485.00
305.61	3499.00
306.08	3499.00
306.55	3546.00
307.02	3478.00
307.49	3517.00
307.97	3516.00
308.44	3452.00
308.91	3503.00
309.38	3531.00
309.86	3473.00
310.33	3479.00
310.80	3510.00
311.27	3464.00
311.74	3527.00
312.21	3490.00
312.69	3570.00
313.16	3481.00
313.63	3507.00
314.10	3488.00
314.57	3449.00
315.05	3473.00
315.52	3518.00
315.99	3527.00
316.46	3499.00
316.93	3535.00
317.40	3530.00
317.88	3635.00
318.35	3478.00
318.82	3498.00
319.29	3427.00
319.76	3543.00
320.23	3605.00
320.70	3537.00
321.18	3497.00
321.65	3491.00
322.12	3465.00
322.59	3591.00
323.06	3499.00
323.53	3639.00
324.00	3462.00
324.48	3529.00
324.95	3484.00
325.42	3508.00
325.89	3503.00
326.36	3463.00
326.83	3542.00
327.30	3525.00
327.77	3516.00
328.24	3506.00
328.72	3493.00
329.19	3487.00
329.66	3495.00
330.13	3481.00
330.60	3549.00
331.07	3518.00
331.54	3614.00
332.01	3483.00
332.48	3571.00
332.95	3586.00
333.43	3521.00
333.90	3600.00
334.37	3542.00
334.84	3567.00
335.31	3671.00
335.78	3485.00
336.25	3532.00
336.72	3525.00
337.19	3547.00
337.66	3503.00
338.13	3487.00
338.60	3567.00
339.07	3555.00
339.54	3479.00
340.01	3475.00
340.49	3484.00
340.96	3543.00
341.43	3607.00
341.90	3473.00
342.37	3504.00
342.84	3563.00
343.31	3576.00
343.78	3531.00
344.25	3513.00
344.72	3491.00
345.19	3539.00
345.66	3574.00
346.13	3494.00
346.60	3455.00
347.07	3551.00
347.54	3511.00
348.01	3576.00
348.48	3574.00
348.95	3466.00
349.42	3487.00
349.89	3568.00
350.36	3492.00
350.83	3493.00
351.30	3542.00
351.77	3583.00
352.24	3531.00
352.71	3521.00
353.18	3556.00
353.65	3569.00
354.12	3520.00
354.59	3573.00
355.06	3539.00
355.53	3579.00
356.00	3483.00
356.47	3618.00
356.94	3520.00
357.41	3669.00
357.88	3578.00
358.35	3455.00
358.82	3524.00
359.28	3509.00
359.75	3517.00
360.22	3574.00
360.69	3585.00
361.16	3508.00
361.63	3507.00
362.10	3516.00
362.57	3536.00
363.04	3518.00
363.51	3617.00
363.98	3543.00
364.45	3516.00
364.92	3559.00
365.39	3530.00
365.86	3489.00
366.32	3517.00
366.79	3530.00
367.26	4507.00
367.73	3888.00
368.20	3468.00
368.67	3584.00
369.14	3498.00
369.61	3616.00
370.08	3556.00
370.55	3498.00
371.02	4367.00
371.48	3528.00
371.95	3509.00
372.42	3453.00
372.89	3528.00
373.36	3511.00
373.83	3460.00
374.30	3474.00
374.77	3520.00
375.23	3446.00
375.70	3640.00
376.17	3502.00
376.64	3473.00
377.11	3496.00
377.58	3537.00
378.05	3525.00
378.51	3535.00
378.98	3518.00
379.45	3498.00
379.92	3508.00
380.39	3652.00
380.86	3523.00
381.33	3609.00
381.79	3563.00
382.26	3487.00
382.73	3531.00
383.20	3547.00
383.67	3568.00
384.14	3523.00
384.60	3750.00
385.07	3537.00
385.54	3504.00
386.01	3519.00
386.48	3609.00
386.94	3475.00
387.41	3469.00
387.88	3554.00
388.35	3509.00
388.82	3569.00
389.28	3559.00
389.75	3575.00
390.22	3529.00
390.69	3544.00
391.16	3521.00
391.62	3528.00
392.09	3569.00
392.56	3512.00
393.03	3507.00
393.50	3617.00
393.96	3509.00
394.43	3571.00
394.90	3479.00
395.37	3569.00
395.83	3759.00
396.30	3438.00
396.77	3521.00
397.24	3561.00
397.70	3487.00
398.17	3538.00
398.64	3537.00
399.11	3525.00
399.57	3540.00
400.04	3498.00
400.51	3529.00
400.98	3493.00
401.44	3601.00
401.91	3535.00
402.38	3545.00
402.84	3499.00
403.31	3586.00
403.78	3551.00
404.25	3609.00
404.71	3661.00
405.18	3572.00
405.65	3490.00
406.12	3565.00
406.58	3533.00
407.05	3669.00
407.52	3549.00
407.98	4093.00
408.45	3557.00
408.92	3517.00
409.38	3628.00
409.85	3530.00
410.32	3563.00
410.78	3548.00
411.25	3621.00
411.72	3543.00
412.18	3488.00
412.65	3601.00
413.12	3547.00
413.59	3570.00
414.05	3595.00
414.52	3637.00
414.98	3575.00
415.45	3639.00
415.92	3573.00
416.38	3577.00
416.85	3650.00
417.32	3630.00
417.78	3562.00
418.25	3607.00
418.72	3582.00
419.18	3626.00
419.65	3506.00
420.12	3625.00
420.58	3572.00
421.05	3597.00
421.51	3580.00
421.98	3627.00
422.45	3563.00
422.91	3608.00
423.38	3661.00
423.85	3667.00
424.31	3604.00
424.78	3653.00
425.24	3590.00
425.71	3709.00
426.18	3588.00
426.64	3681.00
427.11	3649.00
427.57	3700.00
428.04	3567.00
428.51	3654.00
428.97	3662.00
429.44	3650.00
429.90	3630.00
430.37	3764.00
430.83	3575.00
431.30	3654.00
431.77	3709.00
432.23	3712.00
432.70	3671.00
433.16	3633.00
433.63	3651.00
434.09	3657.00
434.56	3715.00
435.03	3625.00
435.49	3693.00
435.96	3661.00
436.42	3643.00
436.89	3733.00
437.35	3690.00
437.82	3671.00
438.28	3646.00
438.75	3660.00
439.21	3882.00
439.68	3707.00
440.14	3722.00
440.61	3723.00
441.07	3682.00
441.54	3744.00
442.00	3816.00
442.47	3681.00
442.94	3704.00
443.40	3725.00
443.87	3678.00
444.33	3779.00
444.80	3747.00
445.26	3707.00
445.73	3709.00
446.19	3748.00
446.65	3734.00
447.12	3759.00
447.58	3720.00
448.05	3797.00
448.51	3782.00
448.98	3783.00
449.44	3719.00
449.91	3738.00
450.37	3751.00
450.84	3759.00
451.30	3784.00
451.77	3786.00
452.23	3718.00
452.70	3801.00
453.16	3768.00
453.62	3777.00
454.09	3801.00
454.55	3774.00
455.02	3797.00
455.48	3776.00
455.95	3831.00
456.41	3783.00
456.88	3818.00
457.34	3723.00
457.80	3803.00
458.27	3675.00
458.73	3753.00
459.20	3744.00
459.66	3796.00
460.13	3728.00
460.59	3683.00
461.05	3810.00
461.52	3777.00
461.98	3738.00
462.45	3705.00
462.91	3752.00
463.37	3724.00
463.84	3723.00
464.30	3687.00
464.76	3664.00
465.23	3655.00
465.69	3744.00
466.16	3739.00
466.62	3681.00
467.08	3722.00
467.55	3701.00
468.01	3713.00
468.48	3711.00
468.94	3659.00
469.40	3641.00
469.87	3673.00
470.33	3646.00
470.79	3669.00
471.26	3679.00
471.72	3597.00
472.18	3671.00
472.65	3643.00
473.11	3772.00
473.57	3673.00
474.04	3655.00
474.50	3632.00
474.96	3591.00
475.43	3673.00
475.89	3696.00
476.35	3671.00
476.82	3656.00
477.28	3676.00
477.74	3716.00
478.21	3647.00
478.67	3715.00
479.13	3633.00
479.59	3709.00
480.06	3671.00
480.52	3651.00
480.98	3623.00
481.45	3693.00
481.91	3642.00
482.37	3603.00
482.84	3643.00
483.30	3614.00
483.76	3673.00
484.22	3711.00
484.69	3645.00
485.15	3567.00
485.61	3529.00
486.07	3568.00
486.54	3520.00
487.00	3601.00
487.46	3549.00
487.92	3643.00
488.39	3647.00
488.85	3665.00
489.31	3637.00
489.77	3656.00
490.24	3633.00
490.70	3635.00
491.16	3563.00
491.62	3623.00
492.09	3611.00
492.55	3709.00
493.01	3687.00
493.47	3696.00
493.94	3669.00
494.40	3680.00
494.86	3677.00
495.32	3663.00
495.78	3685.00
496.25	3685.00
496.71	3671.00
497.17	3791.00
497.63	3723.00
498.09	3669.00
498.56	3747.00
499.02	3713.00
499.48	3812.00
499.94	3691.00
500.40	3671.00
500.87	3720.00
501.33	3683.00
501.79	3740.00
502.25	3755.00
502.71	4025.00
503.17	3774.00
503.64	3749.00
504.10	3742.00
504.56	3809.00
505.02	3836.00
505.48	3804.00
505.94	3874.00
506.40	3907.00
506.87	3889.00
507.33	3875.00
507.79	3891.00
508.25	3873.00
508.71	3896.00
509.17	3861.00
509.63	3938.00
510.10	3953.00
510.56	3989.00
511.02	4049.00
511.48	4094.00
511.94	4026.00
512.40	3976.00
512.86	4033.00
513.32	4095.00
513.78	3969.00
514.25	4193.00
514.71	4837.00
515.17	4125.00
515.63	4232.00
516.09	4219.00
516.55	4133.00
517.01	4309.00
517.47	4218.00
517.93	4231.00
518.39	4503.00
518.85	4350.00
519.32	4426.00
519.78	4456.00
520.24	4439.00
520.70	4539.00
521.16	4623.00
521.62	4647.00
522.08	4641.00
522.54	4743.00
523.00	4774.00
523.46	4886.00
523.92	4793.00
524.38	5004.00
524.84	4950.00
525.30	4937.00
525.76	4945.00
526.22	4865.00
526.68	4829.00
527.14	4915.00
527.60	5037.00
528.06	5139.00
528.52	5176.00
528.98	5206.00
529.44	5183.00
529.90	5253.00
530.36	5342.00
530.82	5267.00
531.28	5423.00
531.74	5364.00
532.20	5229.00
532.66	5193.00
533.12	5404.00
533.58	5306.00
534.04	5336.00
534.50	5369.00
534.96	5451.00
535.42	5536.00
535.88	5496.00
536.34	5500.00
536.80	5393.00
537.26	5570.00
537.72	5547.00
538.18	5545.00
538.64	5678.00
539.10	5551.00
539.56	5741.00
540.02	5455.00
540.48	5600.00
540.94	5515.00
541.40	5586.00
541.86	5665.00
542.32	5617.00
542.78	5604.00
543.24	5800.00
543.69	5641.00
544.15	5850.00
544.61	5707.00
545.07	5720.00
545.53	5682.00
545.99	5805.00
546.45	5696.00
546.91	5806.00
547.37	5705.00
547.83	5703.00
548.29	5735.00
548.74	5782.00
549.20	5779.00
549.66	5942.00
550.12	5792.00
550.58	5819.00
551.04	5763.00
551.50	5837.00
551.96	5952.00
552.42	5828.00
552.87	5740.00
553.33	5819.00
553.79	5899.00
554.25	5799.00
554.71	5923.00
555.17	5839.00
555.63	5932.00
556.08	5835.00
556.54	5893.00
557.00	5763.00
557.46	5800.00
557.92	5897.00
558.38	5690.00
558.83	5664.00
559.29	5644.00
559.75	5659.00
560.21	5680.00
560.67	5776.00
561.13	5670.00
561.58	5675.00
562.04	5631.00
562.50	5645.00
562.96	5655.00
563.42	5654.00
563.87	5563.00
564.33	5672.00
564.79	5581.00
565.25	5461.00
565.71	5488.00
566.16	5522.00
566.62	5503.00
567.08	5521.00
567.54	5497.00
568.00	5425.00
568.45	5336.00
568.91	5402.00
569.37	5366.00
569.83	5340.00
570.28	5223.00
570.74	5216.00
571.20	5263.00
571.66	5281.00
572.11	5266.00
572.57	5247.00
573.03	5192.00
573.49	5195.00
573.94	5231.00
574.40	5197.00
574.86	5168.00
575.32	5019.00
575.77	5125.00
576.23	4989.00
576.69	5125.00
577.15	5024.00
577.60	4971.00
578.06	4917.00
578.52	5009.00
578.97	4959.00
579.43	4909.00
579.89	4986.00
580.34	4955.00
580.80	4897.00
581.26	4968.00
581.72	4926.00
582.17	4961.00
582.63	4839.00
583.09	4940.00
583.54	4887.00
584.00	4903.00
584.46	4869.00
584.91	4881.00
585.37	4890.00
585.83	4707.00
586.28	4806.00
586.74	4810.00
587.20	4758.00
587.65	4862.00
588.11	4613.00
588.57	4621.00
589.02	4526.00
589.48	4509.00
589.94	4681.00
590.39	4707.00
590.85	4631.00
591.30	4644.00
591.76	4699.00
592.22	4619.00
592.67	4658.00
593.13	4684.00
593.59	4706.00
594.04	4641.00
594.50	4643.00
594.95	4697.00
595.41	4602.00
595.87	4598.00
596.32	4687.00
596.78	4686.00
597.23	4665.00
597.69	4609.00
598.15	4551.00
598.60	4592.00
599.06	4634.00
599.51	4649.00
599.97	4647.00
600.43	4585.00
600.88	4608.00
601.34	4626.00
601.79	4479.00
602.25	4718.00
602.70	4579.00
603.16	4609.00
603.61	4521.00
604.07	4545.00
604.53	4627.00
604.98	4545.00
605.44	4590.00
605.89	4551.00
606.35	4516.00
606.80	4530.00
607.26	4523.00
607.71	4516.00
608.17	4502.00
608.62	4518.00
609.08	4600.00
609.53	4477.00
609.99	4457.00
610.44	4423.00
610.90	4433.00
611.35	4399.00
611.81	4494.00
612.26	4412.00
612.72	4371.00
613.17	4465.00
613.63	4293.00
614.08	4276.00
614.54	4285.00
614.99	4316.00
615.45	4323.00
615.90	4298.00
616.36	4171.00
616.81	4246.00
617.27	4266.00
617.72	4323.00
618.18	4318.00
618.63	4309.00
619.09	4254.00
619.54	4283.00
619.99	4245.00
620.45	4306.00
620.90	4342.00
621.36	4238.00
621.81	4323.00
622.27	4264.00
622.72	4303.00
623.18	4287.00
623.63	4203.00
624.08	4241.00
624.54	4141.00
624.99	4201.00
625.45	4245.00
625.90	4120.00
626.35	4202.00
626.81	4197.00
627.26	4176.00
627.72	4141.00
628.17	4210.00
628.62	4134.00
629.08	4153.00
629.53	4189.00
629.99	4109.00
630.44	4187.00
630.89	4202.00
631.35	4201.00
631.80	4184.00
632.26	4206.00
632.71	4135.00
633.16	4137.00
633.62	4144.00
634.07	4123.00
634.52	4131.00
634.98	4103.00
635.43	4186.00
635.88	4109.00
636.34	4158.00
636.79	4128.00
637.24	4124.00
637.70	4173.00
638.15	4191.00
638.60	4082.00
639.06	4108.00
639.51	4049.00
639.96	4007.00
640.42	4071.00
640.87	4070.00
641.32	4026.00
641.78	4021.00
642.23	3992.00
642.68	3990.00
643.14	4039.00
643.59	4053.00
644.04	3963.00
644.49	3911.00
644.95	3953.00
645.40	3883.00
645.85	3945.00
646.31	3919.00
646.76	3933.00
647.21	3911.00
647.66	3865.00
648.12	3879.00
648.57	3846.00
649.02	3875.00
649.47	3840.00
649.93	3985.00
650.38	3839.00
650.83	3830.00
651.28	3768.00
651.74	3851.00
652.19	3815.00
652.64	3832.00
653.09	3803.00
653.55	3784.00
654.00	3846.00
654.45	3819.00
654.90	3785.00
655.35	3730.00
655.81	3772.00
656.26	3631.00
656.71	3705.00
657.16	3757.00
657.62	3789.00
658.07	3729.00
658.52	3735.00
658.97	3707.00
659.42	3903.00
659.88	3656.00
660.33	3785.00
660.78	3731.00
661.23	3673.00
661.68	3703.00
662.13	3619.00
662.59	3645.00
663.04	3703.00
663.49	3666.00
663.94	3601.00
664.39	3626.00
664.84	3561.00
665.30	3677.00
665.75	3538.00
666.20	3639.00
666.65	3680.00
667.10	3732.00
667.55	3674.00
668.00	3551.00
668.46	3648.00
668.91	3584.00
669.36	3720.00
669.81	3489.00
670.26	3549.00
670.71	3647.00
671.16	3579.00
671.61	3642.00
672.06	3661.00
672.52	3549.00
672.97	3575.00
673.42	3607.00
673.87	3699.00
674.32	3560.00
674.77	3536.00
675.22	3496.00
675.67	3536.00
676.12	3556.00
676.57	3530.00
677.02	3552.00
677.47	3535.00
677.93	3714.00
678.38	3480.00
678.83	3548.00
679.28	3589.00
679.73	3539.00
680.18	3525.00
680.63	3588.00
681.08	3497.00
681.53	3511.00
681.98	3514.00
682.43	3563.00
682.88	3582.00
683.33	3612.00
683.78	3585.00
684.23	3688.00
684.68	3630.00
685.13	3615.00
685.58	3620.00
686.03	3603.00
686.48	3566.00
686.93	3567.00
687.38	3594.00
687.83	3601.00
688.28	3679.00
688.73	3816.00
689.18	3759.00
689.63	3705.00
690.08	3766.00
690.53	3812.00
690.98	3772.00
691.43	3905.00
691.88	3888.00
692.33	3998.00
692.78	4038.00
693.23	4103.00
693.68	4088.00
694.13	4166.00
694.58	4205.00
695.03	4465.00
695.48	4363.00
695.93	4439.00
696.38	4591.00
696.83	4524.00
697.28	4636.00
697.72	4717.00
698.17	4676.00
698.62	4840.00
699.07	4882.00
699.52	4894.00
699.97	4963.00
700.42	5080.00
700.87	5215.00
701.32	5355.00
701.77	5193.00
702.22	5419.00
702.67	5397.00
703.11	5477.00
703.56	5618.00
704.01	5655.00
704.46	5776.00
704.91	5830.00
705.36	5903.00
705.81	5977.00
706.26	5933.00
706.70	6126.00
707.15	6145.00
707.60	6218.00
708.05	6362.00
708.50	6399.00
708.95	6355.00
709.40	6452.00
709.84	6572.00
710.29	6613.00
710.74	6633.00
711.19	6694.00
711.64	6835.00
712.09	6798.00
712.53	6933.00
712.98	7095.00
713.43	7037.00
713.88	7093.00
714.33	7235.00
714.78	7097.00
715.22	7124.00
715.67	7230.00
716.12	7073.00
716.57	7015.00
717.02	6755.00
717.46	6662.00
717.91	6677.00
718.36	6641.00
718.81	6542.00
719.26	6561.00
719.70	6684.00
720.15	6793.00
720.60	6945.00
721.05	7369.00
721.49	7494.00
721.94	7703.00
722.39	7607.00
722.84	7487.00
723.28	7337.00
723.73	7292.00
724.18	7288.00
724.63	7461.00
725.07	7350.00
725.52	7595.00
725.97	7681.00
726.42	7665.00
726.86	7843.00
727.31	7593.00
727.76	7786.00
728.21	7934.00
728.65	7897.00
729.10	7882.00
729.55	8053.00
729.99	8161.00
730.44	8091.00
730.89	8214.00
731.33	8358.00
731.78	8448.00
732.23	8758.00
732.68	8748.00
733.12	8773.00
733.57	9008.00
734.02	9201.00
734.46	9253.00
734.91	9277.00
735.36	9254.00
735.80	9444.00
736.25	9257.00
736.70	9439.00
737.14	9538.00
737.59	9520.00
738.04	9495.00
738.48	9437.00
738.93	9425.00
739.37	9599.00
739.82	9762.00
740.27	9845.00
740.71	9760.00
741.16	9878.00
741.61	9815.00
742.05	9872.00
742.50	9982.00
742.94	9967.00
743.39	10000.00
743.84	9971.00
744.28	10057.00
744.73	10103.00
745.18	10155.00
745.62	10247.00
746.07	10283.00
746.51	10194.00
746.96	10243.00
747.40	10099.00
747.85	10227.00
748.30	10273.00
748.74	10119.00
749.19	10112.00
749.63	10290.00
750.08	10262.00
750.52	10118.00
750.97	10156.00
751.42	10153.00
751.86	10160.00
752.31	10154.00
752.75	10169.00
753.20	10072.00
753.64	10141.00
754.09	10209.00
754.53	10299.00
754.98	10151.00
755.42	10146.00
755.87	10132.00
756.31	10249.00
756.76	10095.00
757.20	10071.00
757.65	9987.00
758.09	9799.00
758.54	9634.00
758.98	8787.00
759.43	7428.00
759.87	6002.00
760.32	5209.00
760.76	5169.00
761.21	5700.00
761.65	6481.00
762.10	6689.00
762.54	6456.00
762.99	6225.00
763.43	6367.00
763.88	6629.00
764.32	6874.00
764.77	7351.00
765.21	7681.00
765.66	7960.00
766.10	8354.00
766.54	8683.00
766.99	8937.00
767.43	9266.00
767.88	9385.00
768.32	9589.00
768.77	9687.00
769.21	9862.00
769.66	9869.00
770.10	9896.00
770.54	9939.00
770.99	9930.00
771.43	10068.00
771.88	10019.00
772.32	9991.00
772.76	9940.00
773.21	10041.00
773.65	9866.00
774.10	9823.00
774.54	9847.00
774.98	9878.00
775.43	10033.00
775.87	10069.00
776.31	10088.00
776.76	10167.00
777.20	10059.00
777.65	9933.00
778.09	9925.00
778.53	9813.00
778.98	9783.00
779.42	9967.00
779.86	9842.00
780.31	9817.00
780.75	9886.00
781.19	10049.00
781.64	9922.00
782.08	10030.00
782.52	9899.00
782.97	9823.00
783.41	9766.00
783.85	9845.00
784.30	9720.00
784.74	9723.00
785.18	9555.00
785.63	9648.00
786.07	9680.00
786.51	9761.00
786.95	9735.00
787.40	9592.00
787.84	9532.00
788.28	9639.00
788.73	9614.00
789.17	9450.00
789.61	9293.00
790.05	9315.00
790.50	9280.00
790.94	9173.00
791.38	9293.00
791.82	9267.00
792.27	9341.00
792.71	9316.00
793.15	9528.00
793.59	9289.00
794.04	9287.00
794.48	9196.00
794.92	9147.00
795.36	9117.00
795.81	9047.00
796.25	9032.00
796.69	9072.00
797.13	9178.00
797.57	9180.00
798.02	9252.00
798.46	9335.00
798.90	9243.00
799.34	9055.00
799.79	9215.00
800.23	9019.00
800.67	8817.00
801.11	8913.00
801.55	8871.00
801.99	8734.00
802.44	8931.00
802.88	8947.00
803.32	9071.00
803.76	9003.00
804.20	8957.00
804.64	8986.00
805.09	9136.00
805.53	9143.00
805.97	9041.00
806.41	8900.00
806.85	8919.00
807.29	8736.00
807.74	8742.00
808.18	8735.00
808.62	8769.00
809.06	8745.00
809.50	8674.00
809.94	8634.00
810.38	8689.00
810.82	8709.00
811.27	8822.00
811.71	8465.00
812.15	8353.00
812.59	8340.00
813.03	8165.00
813.47	8009.00
813.91	7715.00
814.35	7681.00
814.79	7695.00
815.23	7523.00
815.67	7506.00
816.12	7492.00
816.56	7548.00
817.00	7601.00
817.44	7710.00
817.88	7710.00
818.32	7434.00
818.76	7570.00
819.20	7665.00
819.64	7632.00
820.08	7747.00
820.52	7784.00
820.96	8019.00
821.40	7767.00
821.84	7713.00
822.28	7304.00
822.72	7327.00
823.16	7220.00
823.60	7534.00
824.04	7957.00
824.48	7983.00
824.92	8069.00
825.36	8041.00
825.80	7862.00
826.24	7809.00
826.68	7721.00
827.12	7773.00
827.56	7703.00
828.00	7812.00
828.44	7707.00
828.88	7818.00
829.32	7846.00
829.76	7788.00
830.20	8058.00
830.64	7878.00
831.08	7953.00
831.52	7772.00
831.96	7664.00
832.40	7575.00
832.84	7759.00
833.28	7682.00
833.72	7958.00
834.16	7948.00
834.60	8114.00
835.04	8170.00
835.48	8231.00
835.91	8245.00
836.35	8187.00
836.79	8213.00
837.23	8138.00
837.67	7963.00
838.11	7939.00
838.55	8075.00
838.99	7976.00
839.43	8171.00
839.87	8331.00
840.30	8183.00
840.74	8426.00
841.18	8220.00
841.62	8339.00
842.06	8324.00
842.50	8281.00
842.94	8325.00
843.38	8176.00
843.81	8152.00
844.25	8088.00
844.69	7987.00
845.13	8071.00
845.57	8035.00
846.01	8133.00
846.45	8084.00
846.88	8075.00
847.32	8157.00
847.76	8282.00
848.20	8299.00
848.64	8187.00
849.08	8115.00
849.51	8201.00
849.95	8039.00
850.39	8033.00
850.83	8101.00
851.27	7951.00
851.70	7975.00
852.14	7945.00
852.58	7793.00
853.02	7565.00
853.46	7506.00
853.89	7505.00
854.33	7509.00
854.77	7655.00
855.21	7986.00
855.65	8269.00
856.08	8352.00
856.52	8302.00
856.96	8274.00
857.40	8202.00
857.83	8001.00
858.27	8057.00
858.71	7785.00
859.15	7870.00
859.58	7888.00
860.02	7899.00
860.46	7947.00
860.89	8149.00
861.33	8069.00
861.77	8229.00
862.21	8275.00
862.64	8181.00
863.08	8188.00
863.52	8220.00
863.95	8045.00
864.39	7934.00
864.83	7783.00
865.27	7517.00
865.70	7581.00
866.14	7418.00
866.58	7444.00
867.01	7629.00
867.45	7877.00
867.89	7986.00
868.32	8061.00
868.76	8145.00
869.20	8177.00
869.63	8215.00
870.07	8123.00
870.51	7915.00
870.94	7815.00
871.38	7724.00
871.82	7643.00
872.25	7626.00
872.69	7605.00
873.13	7649.00
873.56	7807.00
874.00	7751.00
874.43	7771.00
874.87	7853.00
875.31	8086.00
875.74	7903.00
876.18	8039.00
876.61	8057.00
877.05	7983.00
877.49	7816.00
877.92	7805.00
878.36	7677.00
878.79	7661.00
879.23	7609.00
879.67	7394.00
880.10	7381.00
880.54	7430.00
880.97	7441.00
881.41	7591.00
881.84	7841.00
882.28	7809.00
882.72	7938.00
883.15	8049.00
883.59	8009.00
884.02	7973.00
884.46	7970.00
884.89	7910.00
885.33	7785.00
885.76	7602.00
886.20	7519.00
886.63	7493.00
887.07	7389.00
887.50	7303.00
887.94	7450.00
888.37	7543.00
888.81	7728.00
889.24	7509.00
889.68	7799.00
890.11	7637.00
890.55	7775.00
890.98	7884.00
891.42	7791.00
891.85	7737.00
892.29	7748.00
892.72	7439.00
893.16	7377.00
893.59	7299.00
894.03	7125.00
894.46	6959.00
894.90	6773.00
895.33	6641.00
895.77	6744.00
896.20	6609.00
896.63	6646.00
897.07	6594.00
897.50	6537.00
897.94	6617.00
898.37	6891.00
898.81	6532.00
899.24	6471.00
899.68	6652.00
900.11	6659.00
900.54	6564.00
900.98	6413.00
901.41	6500.00
901.85	6505.00
902.28	6416.00
902.71	6538.00
903.15	6743.00
903.58	6812.00
904.02	6838.00
904.45	6834.00
904.88	6841.00
905.32	6703.00
905.75	6757.00
906.18	6601.00
906.62	6640.00
907.05	6513.00
907.48	6500.00
907.92	6576.00
908.35	6609.00
908.79	6357.00
909.22	6331.00
909.65	6297.00
910.09	6288.00
910.52	6414.00
910.95	6288.00
911.38	6328.00
911.82	6204.00
912.25	6323.00
912.68	6292.00
913.12	6357.00
913.55	6277.00
913.98	6427.00
914.42	6536.00
914.85	6587.00
915.28	6375.00
915.72	6467.00
916.15	6337.00
916.58	6367.00
917.01	6249.00
917.45	6167.00
917.88	6284.00
918.31	6301.00
918.74	6447.00
919.18	6532.00
919.61	6509.00
920.04	6563.00
920.47	6671.00
920.91	6703.00
921.34	6660.00
921.77	6679.00
922.20	6767.00
922.64	6717.00
923.07	6733.00
923.50	6666.00
923.93	6597.00
924.37	6537.00
924.80	6445.00
925.23	6423.00
925.66	6296.00
926.09	6111.00
926.53	6081.00
926.96	5914.00
927.39	5895.00
927.82	5540.00
928.25	5437.00
928.69	5471.00
929.12	5333.00
929.55	5229.00
929.98	5221.00
930.41	4957.00
930.84	4923.00
931.28	4632.00
931.71	4598.00
932.14	4433.00
932.57	4426.00
933.00	4247.00
933.43	4219.00
933.86	4119.00
934.30	4136.00
934.73	4254.00
935.16	4076.00
935.59	4083.00
936.02	4149.00
936.45	4161.00
936.88	4061.00
937.31	4306.00
937.75	4276.00
938.18	4380.00
938.61	4463.00
939.04	4449.00
939.47	4484.00
939.90	4465.00
940.33	4469.00
940.76	4187.00
941.19	4201.00
941.62	4120.00
942.05	4120.00
942.48	4019.00
942.91	3930.00
943.35	4025.00
943.78	4011.00
944.21	4025.00
944.64	4114.00
945.07	4101.00
945.50	4071.00
945.93	4101.00
946.36	4207.00
946.79	4185.00
947.22	4315.00
947.65	4265.00
948.08	4115.00
948.51	4278.00
948.94	4280.00
949.37	4312.00
949.80	4241.00
950.23	4183.00
950.66	4305.00
951.09	4310.00
951.52	4175.00
951.95	4230.00
952.38	4218.00
952.81	4395.00
953.24	4411.00
953.67	4435.00
954.10	4411.00
954.53	4481.00
954.96	4489.00
955.39	4595.00
955.82	4633.00
956.25	4625.00
956.68	4738.00
957.11	4608.00
957.53	4637.00
957.96	4544.00
958.39	4497.00
958.82	4490.00
959.25	4523.00
959.68	4548.00
960.11	4653.00
960.54	4691.00
960.97	4811.00
961.40	4885.00
961.83	4876.00
962.26	4847.00
962.68	5085.00
963.11	5023.00
963.54	5059.00
963.97	5081.00
964.40	5095.00
964.83	5237.00
965.26	5160.00
965.69	5129.00
966.11	5152.00
966.54	5179.00
966.97	5194.00
967.40	5345.00
967.83	5432.00
968.26	5325.00
968.69	5338.00
969.11	5328.00
969.54	5265.00
969.97	5311.00
970.40	5401.00
970.83	5365.00
971.26	5453.00
971.68	5313.00
972.11	5433.00
972.54	5451.00
972.97	5457.00
973.40	5435.00
973.82	5485.00
974.25	5423.00
974.68	5323.00
975.11	5375.00
975.54	5234.00
975.96	5270.00
976.39	5217.00
976.82	5339.00
977.25	5223.00
977.67	5273.00
978.10	5221.00
978.53	5270.00
978.96	5360.00
979.38	5444.00
979.81	5419.00
980.24	5529.00
980.67	5655.00
981.09	5581.00
981.52	5633.00
981.95	5582.00
982.38	5585.00
982.80	5582.00
983.23	5687.00
983.66	5753.00
984.08	5606.00
984.51	5579.00
984.94	5640.00
985.37	5672.00
985.79	5536.00
986.22	5436.00
986.65	5481.00
987.07	5475.00
987.50	5491.00
987.93	5401.00
988.35	5457.00
988.78	5409.00
989.21	5455.00
989.63	5525.00
990.06	5563.00
990.49	5662.00
990.91	5728.00
991.34	5695.00
991.77	5699.00
992.19	5657.00
992.62	5693.00
993.05	5590.00
993.47	5653.00
993.90	5603.00
994.32	5524.00
994.75	5559.00
995.18	5391.00
995.60	5389.00
996.03	5315.00
996.45	5406.00
996.88	5354.00
997.31	5320.00
997.73	5329.00
998.16	5309.00
998.58	5427.00
999.01	5373.00
999.44	5443.00
999.86	5514.00
1000.29	5496.00
1000.71	5481.00
1001.14	5533.00
1001.56	5491.00
1001.99	5507.00
1002.41	5429.00
1002.84	5407.00
1003.27	5290.00
1003.69	5318.00
1004.12	5247.00
1004.54	5231.00
1004.97	5117.00
1005.39	5054.00
1005.82	5101.00
1006.24	5073.00
1006.67	5051.00
1007.09	5040.00
1007.52	5137.00
1007.94	5099.00
1008.37	5286.00
1008.79	5147.00
1009.22	5186.00
1009.64	5079.00
1010.07	5177.00
1010.49	5164.00
1010.92	5109.00
1011.34	5174.00
1011.77	5110.00
1012.19	5192.00
1012.62	5176.00
1013.04	5078.00
1013.46	5142.00
1013.89	4933.00
1014.31	5005.00
1014.74	4868.00
1015.16	4881.00
1015.59	4819.00
1016.01	4877.00
1016.44	4917.00
1016.86	5728.00
1017.28	4892.00
1017.71	4801.00
1018.13	5135.00
1018.56	5013.00
1018.98	4971.00
1019.40	4995.00
1019.83	5017.00
1020.25	5056.00
1020.68	5069.00
1021.10	5131.00
1021.52	5075.00
1021.95	5261.00
1022.37	5128.00
1022.79	5117.00
1023.22	5085.00
1023.64	5059.00
1024.07	5034.00
1024.49	5045.00
1024.91	4864.00
1025.34	4887.00
1025.76	5027.00
1026.18	4893.00
1026.61	4870.00
1027.03	4844.00
1027.45	4836.00
1027.88	4909.00
1028.30	5039.00
1028.72	4911.00
1029.15	4874.00
1029.57	4977.00
1029.99	5012.00
1030.41	4866.00
1030.84	4923.00
1031.26	4931.00
1031.68	4910.00
1032.11	4881.00
1032.53	4838.00
1032.95	4803.00
1033.37	4848.00
1033.80	4831.00
1034.22	4735.00
1034.64	4848.00
1035.06	4665.00
1035.49	4637.00
1035.91	4652.00
1036.33	4583.00
1036.75	4624.00
1037.18	4653.00
1037.60	4595.00
1038.02	4599.00
1038.44	4694.00
1038.87	4604.00
1039.29	4653.00
1039.71	4629.00
1040.13	4592.00
1040.55	4608.00
1040.98	4655.00
1041.40	4624.00
1041.82	4668.00
1042.24	4554.00
1042.66	4564.00
1043.09	4497.00
1043.51	4520.00
1043.93	4453.00
1044.35	4465.00
1044.77	4428.00
1045.20	4411.00
1045.62	4367.00
1046.04	4345.00
1046.46	4331.00
1046.88	4314.00
1047.30	4413.00
1047.72	4361.00
1048.15	4340.00
1048.57	4255.00
1048.99	4256.00
1049.41	4285.00
1049.83	4349.00
1050.25	4423.00
1050.67	4313.00
1051.09	4267.00
1051.52	4271.00
1051.94	4170.00
1052.36	4251.00
1052.78	4171.00
1053.20	4227.00
1053.62	4249.00
1054.04	4201.00
1054.46	4154.00
1054.88	4275.00
1055.30	4223.00
1055.72	4163.00
1056.14	4152.00
1056.57	4293.00
1056.99	4029.00
1057.41	4144.00
1057.83	4105.00
1058.25	4064.00
1058.67	4030.00
1059.09	3994.00
1059.51	4051.00
1059.93	4016.00
1060.35	3967.00
1060.77	4028.00
1061.19	4071.00
1061.61	3986.00
1062.03	3929.00
1062.45	3940.00
1062.87	4008.00
1063.29	3970.00
1063.71	3923.00
1064.13	3932.00
1064.55	3889.00
1064.97	3967.00
1065.39	3929.00
1065.81	3880.00
1066.23	3915.00
1066.65	3929.00
1067.07	4023.00
1067.49	3882.00
1067.91	3803.00
1068.33	3827.00
1068.75	3865.00
1069.17	3945.00
1069.59	3871.00
1070.00	3830.00
1070.42	3839.00
1070.84	3756.00
1071.26	3774.00
1071.68	3721.00
1072.10	3829.00
1072.52	3834.00
1072.94	3683.00
1073.36	3753.00
1073.78	3745.00
1074.20	3785.00
1074.62	3747.00
1075.03	3726.00
1075.45	3776.00
1075.87	3762.00
1076.29	3750.00
1076.71	3773.00
1077.13	3808.00
1077.55	3646.00
1077.97	3776.00
1078.38	3695.00
1078.80	3769.00
1079.22	3743.00
1079.64	3695.00
1080.06	3640.00
1080.48	3703.00
1080.89	3625.00
1081.31	3688.00
1081.73	3683.00
1082.15	3635.00
1082.57	3749.00
1082.99	3591.00
1083.40	3624.00
1083.82	3697.00
1084.24	3637.00
1084.66	3614.00
1085.08	3624.00
1085.49	3563.00
1085.91	3617.00
1086.33	4869.00
1086.75	3627.00
1087.17	3579.00
1087.58	3589.00
1088.00	3590.00
1088.42	3659.00
1088.84	3562.00
1089.25	3539.00
1089.67	3558.00
1090.09	3527.00
1090.51	3523.00
1090.92	3591.00
1091.34	3533.00
1091.76	3528.00
1092.18	3530.00
1092.59	3501.00
1093.01	3506.00
1093.43	3498.00
1093.84	3470.00
1094.26	3475.00
1094.68	3471.00
1095.10	3447.00
1095.51	3516.00
1095.93	3440.00
1096.35	3505.00
1096.76	3507.00
1097.18	3541.00
1097.60	3441.00
1098.01	3461.00
1098.43	3437.00
1098.85	3454.00
1099.26	3441.00
1099.68	3437.00
1100.10	3401.00
1100.51	3409.00
1100.93	3372.00
1101.35	3448.00
1101.76	3431.00
1102.18	3939.00
1102.60	3470.00
1103.01	3360.00
1103.43	3408.00
1103.84	3365.00
1104.26	3339.00
1104.68	3365.00
1105.09	3323.00
1105.51	3327.00
1105.92	3393.00
1106.34	3298.00
1106.76	3411.00
1107.17	3349.00
1107.59	3355.00
1108.00	3293.00
1108.42	3374.00
1108.83	3259.00
1109.25	3290.00
1109.67	3261.00
1110.08	3260.00
1110.50	3230.00
1110.91	3305.00
1111.33	3238.00
1111.74	3267.00
1112.16	3319.00
1112.57	3304.00
1112.99	3236.00
1113.41	3276.00
1113.82	3219.00
1114.24	3282.00
1114.65	3255.00
1115.07	3181.00
1115.48	3092.00
1115.90	2187.00
1116.31	2206.00
1116.73	2209.00
1117.14	2208.00
>>>>>End Processed Spectral Data<<<<<
