SpectraSuite Data File
++++++++++++++++++++++++++++++++++++
Date: Tue May 29 12:59:37 EEST 2018
User: CanSEE
Dark Spectrum Present: No
Reference Spectrum Present: No
Number of Sampled Component Spectra: 1
Spectrometers: MAYP11278
Integration Time (usec): 250000 (MAYP11278)
Spectra Averaged: 1 (MAYP11278)
Boxcar Smoothing: 0 (MAYP11278)
Correct for Electrical Dark: No (MAYP11278)
Strobe/Lamp Enabled: No (MAYP11278)
Correct for Detector Non-linearity: No (MAYP11278)
Correct for Stray Light: No (MAYP11278)
Number of Pixels in Processed Spectrum: 2068
>>>>>Begin Processed Spectral Data<<<<<
187.82	2318.00
188.30	2222.00
188.78	2199.00
189.26	2199.00
189.73	2951.00
190.21	3103.00
190.69	3143.00
191.17	3158.00
191.64	3182.00
192.12	3162.00
192.60	3150.00
193.07	3123.00
193.55	3162.00
194.03	3146.00
194.51	3153.00
194.98	3116.00
195.46	3212.00
195.94	3152.00
196.42	3154.00
196.89	3208.00
197.37	3136.00
197.85	3112.00
198.32	3119.00
198.80	3118.00
199.28	3177.00
199.76	3185.00
200.23	3153.00
200.71	3135.00
201.19	3197.00
201.66	3169.00
202.14	3139.00
202.62	3132.00
203.09	3142.00
203.57	3120.00
204.05	3186.00
204.53	3236.00
205.00	3146.00
205.48	3131.00
205.96	3206.00
206.43	3155.00
206.91	3177.00
207.39	3237.00
207.86	3172.00
208.34	3192.00
208.82	3165.00
209.29	3210.00
209.77	3175.00
210.25	3184.00
210.72	3163.00
211.20	3233.00
211.68	3147.00
212.15	3152.00
212.63	3224.00
213.11	3190.00
213.58	3128.00
214.06	3249.00
214.53	3173.00
215.01	3202.00
215.49	3178.00
215.96	3188.00
216.44	3178.00
216.92	3194.00
217.39	3147.00
217.87	3158.00
218.35	3229.00
218.82	3103.00
219.30	3156.00
219.77	3160.00
220.25	3161.00
220.73	3242.00
221.20	3149.00
221.68	3175.00
222.15	3147.00
222.63	3209.00
223.11	3136.00
223.58	3208.00
224.06	3162.00
224.53	3184.00
225.01	3156.00
225.49	3183.00
225.96	3144.00
226.44	3187.00
226.91	3191.00
227.39	3118.00
227.87	3191.00
228.34	3175.00
228.82	3193.00
229.29	3201.00
229.77	3194.00
230.24	3163.00
230.72	3195.00
231.20	3227.00
231.67	3213.00
232.15	3176.00
232.62	3151.00
233.10	3160.00
233.57	3186.00
234.05	3297.00
234.53	3179.00
235.00	3139.00
235.48	3155.00
235.95	3171.00
236.43	3228.00
236.90	3251.00
237.38	3168.00
237.85	3194.00
238.33	3187.00
238.80	3171.00
239.28	3177.00
239.75	3169.00
240.23	3171.00
240.71	3194.00
241.18	3161.00
241.66	3151.00
242.13	3235.00
242.61	3201.00
243.08	3137.00
243.56	3138.00
244.03	3192.00
244.51	3233.00
244.98	3128.00
245.46	3211.00
245.93	4699.00
246.41	3112.00
246.88	3126.00
247.36	3170.00
247.83	3186.00
248.31	3195.00
248.78	3152.00
249.26	3176.00
249.73	3221.00
250.21	3165.00
250.68	3248.00
251.16	3180.00
251.63	3251.00
252.10	3224.00
252.58	3171.00
253.05	3200.00
253.53	3181.00
254.00	3160.00
254.48	3198.00
254.95	3211.00
255.43	3234.00
255.90	3166.00
256.38	3223.00
256.85	3191.00
257.33	3225.00
257.80	3288.00
258.27	3180.00
258.75	3187.00
259.22	3175.00
259.70	3194.00
260.17	3215.00
260.65	3192.00
261.12	3209.00
261.59	3254.00
262.07	3173.00
262.54	3190.00
263.02	3242.00
263.49	3134.00
263.97	3213.00
264.44	3231.00
264.91	3208.00
265.39	3212.00
265.86	3229.00
266.34	3216.00
266.81	3236.00
267.28	3170.00
267.76	3202.00
268.23	3186.00
268.71	3118.00
269.18	3141.00
269.65	3159.00
270.13	3182.00
270.60	3229.00
271.08	3175.00
271.55	3185.00
272.02	3165.00
272.50	3141.00
272.97	3136.00
273.44	3179.00
273.92	3279.00
274.39	3240.00
274.87	3186.00
275.34	3140.00
275.81	3182.00
276.29	3171.00
276.76	3168.00
277.23	3102.00
277.71	3107.00
278.18	3067.00
278.65	3233.00
279.13	3120.00
279.60	3181.00
280.07	3392.00
280.55	3405.00
281.02	3422.00
281.50	3231.00
281.97	3287.00
282.44	3189.00
282.91	3220.00
283.39	3256.00
283.86	3197.00
284.33	3162.00
284.81	3258.00
285.28	3183.00
285.75	3204.00
286.23	3188.00
286.70	3143.00
287.17	3223.00
287.65	3255.00
288.12	3187.00
288.59	3235.00
289.07	3116.00
289.54	3232.00
290.01	3167.00
290.48	3205.00
290.96	3158.00
291.43	3218.00
291.90	3299.00
292.38	3162.00
292.85	3234.00
293.32	3207.00
293.79	3234.00
294.27	3205.00
294.74	3197.00
295.21	3193.00
295.69	3196.00
296.16	3286.00
296.63	3244.00
297.10	3240.00
297.58	3233.00
298.05	3243.00
298.52	3197.00
298.99	3235.00
299.47	3144.00
299.94	3239.00
300.41	3186.00
300.88	3255.00
301.36	3265.00
301.83	3238.00
302.30	3176.00
302.77	3209.00
303.25	3239.00
303.72	3203.00
304.19	3164.00
304.66	3187.00
305.13	3227.00
305.61	3237.00
306.08	3205.00
306.55	3243.00
307.02	3182.00
307.49	3192.00
307.97	3222.00
308.44	3171.00
308.91	3233.00
309.38	3242.00
309.86	3206.00
310.33	3221.00
310.80	3194.00
311.27	3194.00
311.74	3263.00
312.21	3232.00
312.69	3272.00
313.16	3175.00
313.63	3209.00
314.10	3253.00
314.57	3209.00
315.05	3181.00
315.52	3222.00
315.99	3259.00
316.46	3192.00
316.93	3231.00
317.40	3260.00
317.88	3327.00
318.35	3224.00
318.82	3230.00
319.29	3163.00
319.76	3261.00
320.23	3287.00
320.70	3262.00
321.18	3195.00
321.65	3205.00
322.12	3205.00
322.59	3275.00
323.06	3235.00
323.53	3362.00
324.00	3189.00
324.48	3247.00
324.95	3212.00
325.42	3217.00
325.89	3248.00
326.36	3232.00
326.83	3256.00
327.30	3234.00
327.77	3240.00
328.24	3220.00
328.72	3202.00
329.19	3219.00
329.66	3244.00
330.13	3222.00
330.60	3292.00
331.07	3245.00
331.54	3312.00
332.01	3212.00
332.48	3258.00
332.95	3262.00
333.43	3266.00
333.90	3318.00
334.37	3233.00
334.84	3216.00
335.31	3354.00
335.78	3213.00
336.25	3220.00
336.72	3241.00
337.19	3223.00
337.66	3208.00
338.13	3223.00
338.60	3264.00
339.07	3244.00
339.54	3211.00
340.01	3211.00
340.49	3181.00
340.96	3247.00
341.43	3280.00
341.90	3196.00
342.37	3202.00
342.84	3262.00
343.31	3261.00
343.78	3221.00
344.25	3254.00
344.72	3201.00
345.19	3201.00
345.66	3247.00
346.13	3173.00
346.60	3193.00
347.07	3279.00
347.54	3214.00
348.01	3262.00
348.48	3251.00
348.95	3184.00
349.42	3204.00
349.89	3274.00
350.36	3228.00
350.83	3197.00
351.30	3256.00
351.77	3292.00
352.24	3246.00
352.71	3237.00
353.18	3267.00
353.65	3241.00
354.12	3249.00
354.59	3257.00
355.06	3256.00
355.53	3313.00
356.00	3229.00
356.47	3307.00
356.94	3237.00
357.41	3367.00
357.88	3272.00
358.35	3172.00
358.82	3242.00
359.28	3195.00
359.75	3251.00
360.22	3284.00
360.69	3295.00
361.16	3237.00
361.63	3199.00
362.10	3236.00
362.57	3246.00
363.04	3266.00
363.51	3271.00
363.98	3272.00
364.45	3221.00
364.92	3230.00
365.39	3222.00
365.86	3194.00
366.32	3241.00
366.79	3244.00
367.26	3873.00
367.73	3269.00
368.20	3215.00
368.67	3263.00
369.14	3204.00
369.61	3258.00
370.08	3257.00
370.55	3226.00
371.02	3778.00
371.48	3251.00
371.95	3199.00
372.42	3166.00
372.89	3252.00
373.36	3237.00
373.83	3222.00
374.30	3222.00
374.77	3239.00
375.23	3175.00
375.70	3310.00
376.17	3221.00
376.64	3207.00
377.11	3198.00
377.58	3247.00
378.05	3212.00
378.51	3230.00
378.98	3232.00
379.45	3234.00
379.92	3247.00
380.39	3337.00
380.86	3210.00
381.33	3288.00
381.79	3281.00
382.26	3215.00
382.73	3288.00
383.20	3222.00
383.67	3261.00
384.14	3259.00
384.60	3430.00
385.07	3225.00
385.54	3226.00
386.01	3219.00
386.48	3308.00
386.94	3227.00
387.41	3197.00
387.88	3282.00
388.35	3246.00
388.82	3276.00
389.28	3281.00
389.75	3263.00
390.22	3245.00
390.69	3251.00
391.16	3249.00
391.62	3266.00
392.09	3257.00
392.56	3214.00
393.03	3247.00
393.50	3349.00
393.96	3269.00
394.43	3296.00
394.90	3224.00
395.37	3282.00
395.83	3423.00
396.30	3263.00
396.77	3288.00
397.24	3255.00
397.70	3220.00
398.17	3257.00
398.64	3284.00
399.11	3253.00
399.57	3298.00
400.04	3201.00
400.51	3282.00
400.98	3244.00
401.44	3288.00
401.91	3283.00
402.38	3282.00
402.84	3241.00
403.31	3325.00
403.78	3279.00
404.25	3351.00
404.71	3358.00
405.18	3314.00
405.65	3247.00
406.12	3304.00
406.58	3299.00
407.05	3356.00
407.52	3308.00
407.98	3920.00
408.45	3270.00
408.92	3255.00
409.38	3345.00
409.85	3239.00
410.32	3342.00
410.78	3242.00
411.25	3342.00
411.72	3261.00
412.18	3217.00
412.65	3286.00
413.12	3267.00
413.59	3325.00
414.05	3321.00
414.52	3369.00
414.98	3247.00
415.45	3329.00
415.92	3307.00
416.38	3293.00
416.85	3338.00
417.32	3327.00
417.78	3313.00
418.25	3297.00
418.72	3351.00
419.18	3338.00
419.65	3283.00
420.12	3356.00
420.58	3277.00
421.05	3329.00
421.51	3288.00
421.98	3314.00
422.45	3277.00
422.91	3317.00
423.38	3320.00
423.85	3346.00
424.31	3261.00
424.78	3362.00
425.24	3337.00
425.71	3371.00
426.18	3281.00
426.64	3346.00
427.11	3317.00
427.57	3344.00
428.04	3253.00
428.51	3330.00
428.97	3314.00
429.44	3258.00
429.90	3291.00
430.37	3389.00
430.83	3214.00
431.30	3329.00
431.77	3387.00
432.23	3347.00
432.70	3291.00
433.16	3300.00
433.63	3316.00
434.09	3270.00
434.56	3321.00
435.03	3286.00
435.49	3328.00
435.96	3326.00
436.42	3308.00
436.89	3350.00
437.35	3315.00
437.82	3295.00
438.28	3281.00
438.75	3323.00
439.21	3449.00
439.68	3346.00
440.14	3326.00
440.61	3374.00
441.07	3283.00
441.54	3334.00
442.00	3452.00
442.47	3261.00
442.94	3319.00
443.40	3337.00
443.87	3272.00
444.33	3369.00
444.80	3319.00
445.26	3355.00
445.73	3327.00
446.19	3316.00
446.65	3321.00
447.12	3332.00
447.58	3304.00
448.05	3311.00
448.51	3368.00
448.98	3351.00
449.44	3374.00
449.91	3333.00
450.37	3338.00
450.84	3318.00
451.30	3358.00
451.77	3397.00
452.23	3300.00
452.70	3389.00
453.16	3347.00
453.62	3337.00
454.09	3335.00
454.55	3370.00
455.02	3312.00
455.48	3367.00
455.95	3381.00
456.41	3337.00
456.88	3374.00
457.34	3307.00
457.80	3312.00
458.27	3321.00
458.73	3316.00
459.20	3353.00
459.66	3360.00
460.13	3300.00
460.59	3261.00
461.05	3385.00
461.52	3311.00
461.98	3264.00
462.45	3261.00
462.91	3305.00
463.37	3251.00
463.84	3274.00
464.30	3263.00
464.76	3243.00
465.23	3266.00
465.69	3300.00
466.16	3268.00
466.62	3243.00
467.08	3256.00
467.55	3271.00
468.01	3261.00
468.48	3291.00
468.94	3259.00
469.40	3216.00
469.87	3253.00
470.33	3264.00
470.79	3225.00
471.26	3213.00
471.72	3200.00
472.18	3226.00
472.65	3221.00
473.11	3288.00
473.57	3229.00
474.04	3208.00
474.50	3223.00
474.96	3190.00
475.43	3207.00
475.89	3204.00
476.35	3250.00
476.82	3211.00
477.28	3196.00
477.74	3249.00
478.21	3192.00
478.67	3252.00
479.13	3167.00
479.59	3272.00
480.06	3212.00
480.52	3203.00
480.98	3173.00
481.45	3185.00
481.91	3234.00
482.37	3185.00
482.84	3201.00
483.30	3131.00
483.76	3204.00
484.22	3269.00
484.69	3184.00
485.15	3198.00
485.61	3098.00
486.07	3171.00
486.54	3103.00
487.00	3162.00
487.46	3161.00
487.92	3166.00
488.39	3174.00
488.85	3182.00
489.31	3232.00
489.77	3227.00
490.24	3194.00
490.70	3214.00
491.16	3165.00
491.62	3178.00
492.09	3116.00
492.55	3236.00
493.01	3247.00
493.47	3210.00
493.94	3204.00
494.40	3220.00
494.86	3193.00
495.32	3215.00
495.78	3234.00
496.25	3225.00
496.71	3274.00
497.17	3295.00
497.63	3309.00
498.09	3216.00
498.56	3246.00
499.02	3280.00
499.48	3376.00
499.94	3290.00
500.40	3277.00
500.87	3279.00
501.33	3271.00
501.79	3302.00
502.25	3334.00
502.71	3573.00
503.17	3333.00
503.64	3330.00
504.10	3357.00
504.56	3396.00
505.02	3377.00
505.48	3390.00
505.94	3454.00
506.40	3497.00
506.87	3438.00
507.33	3450.00
507.79	3486.00
508.25	3454.00
508.71	3535.00
509.17	3485.00
509.63	3573.00
510.10	3553.00
510.56	3595.00
511.02	3671.00
511.48	3686.00
511.94	3643.00
512.40	3636.00
512.86	3703.00
513.32	3779.00
513.78	3668.00
514.25	3814.00
514.71	4339.00
515.17	3832.00
515.63	3880.00
516.09	3911.00
516.55	3820.00
517.01	3959.00
517.47	3897.00
517.93	3944.00
518.39	4101.00
518.85	4032.00
519.32	4126.00
519.78	4126.00
520.24	4158.00
520.70	4258.00
521.16	4253.00
521.62	4392.00
522.08	4342.00
522.54	4449.00
523.00	4520.00
523.46	4523.00
523.92	4550.00
524.38	4666.00
524.84	4600.00
525.30	4671.00
525.76	4674.00
526.22	4569.00
526.68	4565.00
527.14	4692.00
527.60	4696.00
528.06	4851.00
528.52	4874.00
528.98	4906.00
529.44	4845.00
529.90	4850.00
530.36	5026.00
530.82	4964.00
531.28	5072.00
531.74	4987.00
532.20	4968.00
532.66	4943.00
533.12	5050.00
533.58	5074.00
534.04	5050.00
534.50	5070.00
534.96	5060.00
535.42	5224.00
535.88	5146.00
536.34	5149.00
536.80	5034.00
537.26	5158.00
537.72	5172.00
538.18	5121.00
538.64	5170.00
539.10	5157.00
539.56	5334.00
540.02	5075.00
540.48	5110.00
540.94	5165.00
541.40	5142.00
541.86	5168.00
542.32	5224.00
542.78	5184.00
543.24	5296.00
543.69	5112.00
544.15	5330.00
544.61	5206.00
545.07	5254.00
545.53	5182.00
545.99	5296.00
546.45	5272.00
546.91	5255.00
547.37	5181.00
547.83	5187.00
548.29	5239.00
548.74	5241.00
549.20	5210.00
549.66	5341.00
550.12	5276.00
550.58	5211.00
551.04	5319.00
551.50	5313.00
551.96	5329.00
552.42	5225.00
552.87	5191.00
553.33	5254.00
553.79	5273.00
554.25	5279.00
554.71	5260.00
555.17	5280.00
555.63	5352.00
556.08	5226.00
556.54	5252.00
557.00	5148.00
557.46	5165.00
557.92	5221.00
558.38	5167.00
558.83	5095.00
559.29	5031.00
559.75	5031.00
560.21	5005.00
560.67	5106.00
561.13	5120.00
561.58	5052.00
562.04	5045.00
562.50	5027.00
562.96	5017.00
563.42	5054.00
563.87	4912.00
564.33	4963.00
564.79	4976.00
565.25	4879.00
565.71	4863.00
566.16	4837.00
566.62	4849.00
567.08	4860.00
567.54	4784.00
568.00	4809.00
568.45	4733.00
568.91	4710.00
569.37	4750.00
569.83	4689.00
570.28	4643.00
570.74	4598.00
571.20	4595.00
571.66	4558.00
572.11	4549.00
572.57	4624.00
573.03	4553.00
573.49	4520.00
573.94	4556.00
574.40	4561.00
574.86	4426.00
575.32	4338.00
575.77	4466.00
576.23	4343.00
576.69	4409.00
577.15	4368.00
577.60	4354.00
578.06	4280.00
578.52	4337.00
578.97	4281.00
579.43	4281.00
579.89	4313.00
580.34	4319.00
580.80	4221.00
581.26	4317.00
581.72	4307.00
582.17	4246.00
582.63	4194.00
583.09	4241.00
583.54	4247.00
584.00	4248.00
584.46	4185.00
584.91	4149.00
585.37	4281.00
585.83	4114.00
586.28	4170.00
586.74	4113.00
587.20	4128.00
587.65	4185.00
588.11	4036.00
588.57	4035.00
589.02	3949.00
589.48	3935.00
589.94	4030.00
590.39	4065.00
590.85	4044.00
591.30	4026.00
591.76	4080.00
592.22	4025.00
592.67	4049.00
593.13	3995.00
593.59	4071.00
594.04	4029.00
594.50	3992.00
594.95	4040.00
595.41	3987.00
595.87	3951.00
596.32	4037.00
596.78	4055.00
597.23	3996.00
597.69	3970.00
598.15	3923.00
598.60	3956.00
599.06	4015.00
599.51	4009.00
599.97	3969.00
600.43	3998.00
600.88	4010.00
601.34	4011.00
601.79	3883.00
602.25	4068.00
602.70	3962.00
603.16	4013.00
603.61	3885.00
604.07	3862.00
604.53	3942.00
604.98	3935.00
605.44	3944.00
605.89	3931.00
606.35	3840.00
606.80	3900.00
607.26	3867.00
607.71	3879.00
608.17	3853.00
608.62	3879.00
609.08	3908.00
609.53	3904.00
609.99	3829.00
610.44	3794.00
610.90	3808.00
611.35	3759.00
611.81	3895.00
612.26	3822.00
612.72	3790.00
613.17	3858.00
613.63	3738.00
614.08	3663.00
614.54	3682.00
614.99	3689.00
615.45	3701.00
615.90	3740.00
616.36	3595.00
616.81	3690.00
617.27	3694.00
617.72	3715.00
618.18	3646.00
618.63	3658.00
619.09	3662.00
619.54	3713.00
619.99	3641.00
620.45	3686.00
620.90	3689.00
621.36	3630.00
621.81	3716.00
622.27	3712.00
622.72	3663.00
623.18	3603.00
623.63	3596.00
624.08	3633.00
624.54	3593.00
624.99	3557.00
625.45	3610.00
625.90	3572.00
626.35	3630.00
626.81	3621.00
627.26	3586.00
627.72	3594.00
628.17	3591.00
628.62	3554.00
629.08	3548.00
629.53	3588.00
629.99	3562.00
630.44	3604.00
630.89	3594.00
631.35	3614.00
631.80	3599.00
632.26	3607.00
632.71	3575.00
633.16	3556.00
633.62	3583.00
634.07	3530.00
634.52	3534.00
634.98	3568.00
635.43	3579.00
635.88	3493.00
636.34	3569.00
636.79	3581.00
637.24	3495.00
637.70	3555.00
638.15	3579.00
638.60	3518.00
639.06	3512.00
639.51	3498.00
639.96	3453.00
640.42	3459.00
640.87	3517.00
641.32	3407.00
641.78	3457.00
642.23	3451.00
642.68	3351.00
643.14	3374.00
643.59	3434.00
644.04	3390.00
644.49	3353.00
644.95	3368.00
645.40	3374.00
645.85	3366.00
646.31	3370.00
646.76	3335.00
647.21	3346.00
647.66	3315.00
648.12	3325.00
648.57	3312.00
649.02	3302.00
649.47	3291.00
649.93	3438.00
650.38	3294.00
650.83	3241.00
651.28	3248.00
651.74	3254.00
652.19	3245.00
652.64	3273.00
653.09	3268.00
653.55	3233.00
654.00	3300.00
654.45	3263.00
654.90	3219.00
655.35	3203.00
655.81	3235.00
656.26	3168.00
656.71	3186.00
657.16	3222.00
657.62	3272.00
658.07	3189.00
658.52	3242.00
658.97	3190.00
659.42	3362.00
659.88	3197.00
660.33	3236.00
660.78	3202.00
661.23	3163.00
661.68	3196.00
662.13	3148.00
662.59	3109.00
663.04	3194.00
663.49	3153.00
663.94	3145.00
664.39	3162.00
664.84	3117.00
665.30	3192.00
665.75	3124.00
666.20	3115.00
666.65	3130.00
667.10	3221.00
667.55	3182.00
668.00	3087.00
668.46	3136.00
668.91	3093.00
669.36	3202.00
669.81	3056.00
670.26	3094.00
670.71	3147.00
671.16	3092.00
671.61	3158.00
672.06	3174.00
672.52	3078.00
672.97	3076.00
673.42	3143.00
673.87	3218.00
674.32	3090.00
674.77	3121.00
675.22	3058.00
675.67	3104.00
676.12	3100.00
676.57	3124.00
677.02	3137.00
677.47	3113.00
677.93	3165.00
678.38	3080.00
678.83	3087.00
679.28	3123.00
679.73	3089.00
680.18	3112.00
680.63	3114.00
681.08	3073.00
681.53	3066.00
681.98	3084.00
682.43	3094.00
682.88	3152.00
683.33	3162.00
683.78	3128.00
684.23	3230.00
684.68	3158.00
685.13	3165.00
685.58	3169.00
686.03	3152.00
686.48	3148.00
686.93	3126.00
687.38	3126.00
687.83	3196.00
688.28	3183.00
688.73	3300.00
689.18	3306.00
689.63	3218.00
690.08	3289.00
690.53	3331.00
690.98	3314.00
691.43	3378.00
691.88	3398.00
692.33	3434.00
692.78	3527.00
693.23	3557.00
693.68	3601.00
694.13	3628.00
694.58	3701.00
695.03	3922.00
695.48	3772.00
695.93	3877.00
696.38	3996.00
696.83	4041.00
697.28	4063.00
697.72	4152.00
698.17	4190.00
698.62	4271.00
699.07	4291.00
699.52	4344.00
699.97	4370.00
700.42	4478.00
700.87	4602.00
701.32	4765.00
701.77	4667.00
702.22	4777.00
702.67	4861.00
703.11	4868.00
703.56	5004.00
704.01	5035.00
704.46	5162.00
704.91	5297.00
705.36	5380.00
705.81	5426.00
706.26	5434.00
706.70	5528.00
707.15	5598.00
707.60	5681.00
708.05	5822.00
708.50	5897.00
708.95	5899.00
709.40	5916.00
709.84	6042.00
710.29	6169.00
710.74	6156.00
711.19	6289.00
711.64	6311.00
712.09	6406.00
712.53	6402.00
712.98	6627.00
713.43	6547.00
713.88	6654.00
714.33	6754.00
714.78	6739.00
715.22	6808.00
715.67	6822.00
716.12	6779.00
716.57	6663.00
717.02	6441.00
717.46	6390.00
717.91	6396.00
718.36	6396.00
718.81	6259.00
719.26	6336.00
719.70	6403.00
720.15	6541.00
720.60	6684.00
721.05	7068.00
721.49	7389.00
721.94	7516.00
722.39	7502.00
722.84	7416.00
723.28	7145.00
723.73	7248.00
724.18	7164.00
724.63	7309.00
725.07	7338.00
725.52	7495.00
725.97	7525.00
726.42	7727.00
726.86	7781.00
727.31	7666.00
727.76	7753.00
728.21	7920.00
728.65	7985.00
729.10	7945.00
729.55	8010.00
729.99	8190.00
730.44	8200.00
730.89	8386.00
731.33	8468.00
731.78	8716.00
732.23	8922.00
732.68	8990.00
733.12	9119.00
733.57	9202.00
734.02	9440.00
734.46	9539.00
734.91	9574.00
735.36	9607.00
735.80	9769.00
736.25	9710.00
736.70	9779.00
737.14	9951.00
737.59	10008.00
738.04	10032.00
738.48	9930.00
738.93	9976.00
739.37	10040.00
739.82	10189.00
740.27	10328.00
740.71	10182.00
741.16	10284.00
741.61	10354.00
742.05	10337.00
742.50	10427.00
742.94	10503.00
743.39	10647.00
743.84	10555.00
744.28	10674.00
744.73	10597.00
745.18	10869.00
745.62	10875.00
746.07	10857.00
746.51	10772.00
746.96	10698.00
747.40	10812.00
747.85	10881.00
748.30	10734.00
748.74	10787.00
749.19	10912.00
749.63	10912.00
750.08	10828.00
750.52	10757.00
750.97	10863.00
751.42	10827.00
751.86	10748.00
752.31	10824.00
752.75	10932.00
753.20	10822.00
753.64	10933.00
754.09	10745.00
754.53	10837.00
754.98	10834.00
755.42	10878.00
755.87	10769.00
756.31	10791.00
756.76	10747.00
757.20	10745.00
757.65	10569.00
758.09	10560.00
758.54	10279.00
758.98	9555.00
759.43	7925.00
759.87	6334.00
760.32	5221.00
760.76	5099.00
761.21	5718.00
761.65	6663.00
762.10	6802.00
762.54	6674.00
762.99	6375.00
763.43	6445.00
763.88	6713.00
764.32	7160.00
764.77	7570.00
765.21	8051.00
765.66	8279.00
766.10	8635.00
766.54	8980.00
766.99	9515.00
767.43	9642.00
767.88	10022.00
768.32	10087.00
768.77	10193.00
769.21	10480.00
769.66	10437.00
770.10	10553.00
770.54	10607.00
770.99	10710.00
771.43	10535.00
771.88	10584.00
772.32	10617.00
772.76	10512.00
773.21	10598.00
773.65	10519.00
774.10	10405.00
774.54	10505.00
774.98	10570.00
775.43	10625.00
775.87	10689.00
776.31	10679.00
776.76	10696.00
777.20	10656.00
777.65	10571.00
778.09	10506.00
778.53	10512.00
778.98	10546.00
779.42	10561.00
779.86	10571.00
780.31	10380.00
780.75	10625.00
781.19	10622.00
781.64	10483.00
782.08	10650.00
782.52	10556.00
782.97	10455.00
783.41	10404.00
783.85	10392.00
784.30	10280.00
784.74	10368.00
785.18	10192.00
785.63	10232.00
786.07	10352.00
786.51	10340.00
786.95	10307.00
787.40	10172.00
787.84	10128.00
788.28	10164.00
788.73	10111.00
789.17	10020.00
789.61	9788.00
790.05	9795.00
790.50	9740.00
790.94	9718.00
791.38	9802.00
791.82	9766.00
792.27	9830.00
792.71	9822.00
793.15	10019.00
793.59	9946.00
794.04	9804.00
794.48	9687.00
794.92	9670.00
795.36	9636.00
795.81	9625.00
796.25	9500.00
796.69	9534.00
797.13	9666.00
797.57	9655.00
798.02	9887.00
798.46	9816.00
798.90	9806.00
799.34	9597.00
799.79	9580.00
800.23	9453.00
800.67	9435.00
801.11	9441.00
801.55	9323.00
801.99	9306.00
802.44	9386.00
802.88	9464.00
803.32	9449.00
803.76	9569.00
804.20	9490.00
804.64	9458.00
805.09	9589.00
805.53	9527.00
805.97	9353.00
806.41	9274.00
806.85	9349.00
807.29	9240.00
807.74	9209.00
808.18	9041.00
808.62	9204.00
809.06	9215.00
809.50	9121.00
809.94	9185.00
810.38	9188.00
810.82	9278.00
811.27	9275.00
811.71	8912.00
812.15	8844.00
812.59	8738.00
813.03	8587.00
813.47	8400.00
813.91	8135.00
814.35	8045.00
814.79	8074.00
815.23	8030.00
815.67	7826.00
816.12	7868.00
816.56	7827.00
817.00	7906.00
817.44	7916.00
817.88	7974.00
818.32	7812.00
818.76	7863.00
819.20	7900.00
819.64	7877.00
820.08	8084.00
820.52	8101.00
820.96	8278.00
821.40	8231.00
821.84	8073.00
822.28	7673.00
822.72	7634.00
823.16	7551.00
823.60	7771.00
824.04	8218.00
824.48	8408.00
824.92	8333.00
825.36	8367.00
825.80	8165.00
826.24	8179.00
826.68	8057.00
827.12	8094.00
827.56	8071.00
828.00	8039.00
828.44	7925.00
828.88	8147.00
829.32	8180.00
829.76	8155.00
830.20	8278.00
830.64	8184.00
831.08	8243.00
831.52	8082.00
831.96	8051.00
832.40	7905.00
832.84	7999.00
833.28	8062.00
833.72	8109.00
834.16	8249.00
834.60	8493.00
835.04	8532.00
835.48	8622.00
835.91	8494.00
836.35	8545.00
836.79	8420.00
837.23	8470.00
837.67	8291.00
838.11	8350.00
838.55	8470.00
838.99	8448.00
839.43	8564.00
839.87	8584.00
840.30	8691.00
840.74	8777.00
841.18	8681.00
841.62	8723.00
842.06	8742.00
842.50	8770.00
842.94	8611.00
843.38	8573.00
843.81	8399.00
844.25	8364.00
844.69	8281.00
845.13	8303.00
845.57	8278.00
846.01	8399.00
846.45	8358.00
846.88	8473.00
847.32	8594.00
847.76	8658.00
848.20	8689.00
848.64	8586.00
849.08	8478.00
849.51	8499.00
849.95	8363.00
850.39	8226.00
850.83	8370.00
851.27	8356.00
851.70	8275.00
852.14	8183.00
852.58	8132.00
853.02	7934.00
853.46	7847.00
853.89	7765.00
854.33	7804.00
854.77	7885.00
855.21	8314.00
855.65	8529.00
856.08	8654.00
856.52	8553.00
856.96	8539.00
857.40	8420.00
857.83	8228.00
858.27	8233.00
858.71	8154.00
859.15	8050.00
859.58	8203.00
860.02	8231.00
860.46	8382.00
860.89	8433.00
861.33	8436.00
861.77	8610.00
862.21	8561.00
862.64	8629.00
863.08	8616.00
863.52	8464.00
863.95	8421.00
864.39	8328.00
864.83	8079.00
865.27	7736.00
865.70	7665.00
866.14	7646.00
866.58	7629.00
867.01	7794.00
867.45	8126.00
867.89	8238.00
868.32	8364.00
868.76	8482.00
869.20	8455.00
869.63	8486.00
870.07	8365.00
870.51	8120.00
870.94	8070.00
871.38	7966.00
871.82	7866.00
872.25	7829.00
872.69	7877.00
873.13	7857.00
873.56	8003.00
874.00	8114.00
874.43	8169.00
874.87	8137.00
875.31	8344.00
875.74	8210.00
876.18	8343.00
876.61	8273.00
877.05	8242.00
877.49	8167.00
877.92	7989.00
878.36	7916.00
878.79	7823.00
879.23	7856.00
879.67	7663.00
880.10	7692.00
880.54	7745.00
880.97	7763.00
881.41	7959.00
881.84	8106.00
882.28	8149.00
882.72	8199.00
883.15	8237.00
883.59	8297.00
884.02	8337.00
884.46	8207.00
884.89	8158.00
885.33	7973.00
885.76	7844.00
886.20	7721.00
886.63	7723.00
887.07	7557.00
887.50	7586.00
887.94	7718.00
888.37	7701.00
888.81	7884.00
889.24	7770.00
889.68	7943.00
890.11	7969.00
890.55	8013.00
890.98	8122.00
891.42	8071.00
891.85	7973.00
892.29	7901.00
892.72	7859.00
893.16	7592.00
893.59	7503.00
894.03	7228.00
894.46	7151.00
894.90	7019.00
895.33	6703.00
895.77	6771.00
896.20	6754.00
896.63	6783.00
897.07	6800.00
897.50	6775.00
897.94	6789.00
898.37	6922.00
898.81	6733.00
899.24	6531.00
899.68	6784.00
900.11	6784.00
900.54	6653.00
900.98	6571.00
901.41	6599.00
901.85	6608.00
902.28	6552.00
902.71	6572.00
903.15	6820.00
903.58	6970.00
904.02	6963.00
904.45	6946.00
904.88	7048.00
905.32	6952.00
905.75	6962.00
906.18	6741.00
906.62	6930.00
907.05	6593.00
907.48	6634.00
907.92	6623.00
908.35	6546.00
908.79	6523.00
909.22	6455.00
909.65	6382.00
910.09	6355.00
910.52	6459.00
910.95	6376.00
911.38	6457.00
911.82	6337.00
912.25	6363.00
912.68	6490.00
913.12	6515.00
913.55	6430.00
913.98	6577.00
914.42	6615.00
914.85	6747.00
915.28	6490.00
915.72	6517.00
916.15	6381.00
916.58	6428.00
917.01	6305.00
917.45	6187.00
917.88	6296.00
918.31	6350.00
918.74	6613.00
919.18	6698.00
919.61	6661.00
920.04	6648.00
920.47	6780.00
920.91	6864.00
921.34	6736.00
921.77	6735.00
922.20	6872.00
922.64	6762.00
923.07	6851.00
923.50	6767.00
923.93	6628.00
924.37	6600.00
924.80	6535.00
925.23	6439.00
925.66	6401.00
926.09	6147.00
926.53	6047.00
926.96	5903.00
927.39	5933.00
927.82	5619.00
928.25	5464.00
928.69	5495.00
929.12	5340.00
929.55	5256.00
929.98	5109.00
930.41	4898.00
930.84	4830.00
931.28	4600.00
931.71	4572.00
932.14	4254.00
932.57	4249.00
933.00	4124.00
933.43	4057.00
933.86	4003.00
934.30	3935.00
934.73	4023.00
935.16	4003.00
935.59	3872.00
936.02	3966.00
936.45	3974.00
936.88	3874.00
937.31	4081.00
937.75	4148.00
938.18	4256.00
938.61	4332.00
939.04	4335.00
939.47	4393.00
939.90	4286.00
940.33	4285.00
940.76	4015.00
941.19	4019.00
941.62	3997.00
942.05	3948.00
942.48	3835.00
942.91	3713.00
943.35	3924.00
943.78	3845.00
944.21	3766.00
944.64	3910.00
945.07	3921.00
945.50	3890.00
945.93	3953.00
946.36	4027.00
946.79	4023.00
947.22	4091.00
947.65	4141.00
948.08	3944.00
948.51	4081.00
948.94	4144.00
949.37	4176.00
949.80	4018.00
950.23	4005.00
950.66	4100.00
951.09	4122.00
951.52	3990.00
951.95	4066.00
952.38	4078.00
952.81	4251.00
953.24	4328.00
953.67	4294.00
954.10	4250.00
954.53	4335.00
954.96	4327.00
955.39	4387.00
955.82	4443.00
956.25	4390.00
956.68	4511.00
957.11	4442.00
957.53	4479.00
957.96	4428.00
958.39	4375.00
958.82	4292.00
959.25	4363.00
959.68	4405.00
960.11	4527.00
960.54	4510.00
960.97	4611.00
961.40	4731.00
961.83	4677.00
962.26	4654.00
962.68	4913.00
963.11	4932.00
963.54	4959.00
963.97	4968.00
964.40	4949.00
964.83	5020.00
965.26	5049.00
965.69	5054.00
966.11	4959.00
966.54	4946.00
966.97	5099.00
967.40	5169.00
967.83	5303.00
968.26	5197.00
968.69	5193.00
969.11	5259.00
969.54	5202.00
969.97	5209.00
970.40	5344.00
970.83	5228.00
971.26	5380.00
971.68	5317.00
972.11	5353.00
972.54	5390.00
972.97	5353.00
973.40	5266.00
973.82	5328.00
974.25	5284.00
974.68	5252.00
975.11	5184.00
975.54	5121.00
975.96	5086.00
976.39	5058.00
976.82	5191.00
977.25	5048.00
977.67	5153.00
978.10	5069.00
978.53	5157.00
978.96	5253.00
979.38	5280.00
979.81	5350.00
980.24	5415.00
980.67	5490.00
981.09	5512.00
981.52	5547.00
981.95	5526.00
982.38	5556.00
982.80	5599.00
983.23	5599.00
983.66	5689.00
984.08	5596.00
984.51	5450.00
984.94	5499.00
985.37	5538.00
985.79	5427.00
986.22	5291.00
986.65	5419.00
987.07	5321.00
987.50	5344.00
987.93	5301.00
988.35	5380.00
988.78	5387.00
989.21	5394.00
989.63	5412.00
990.06	5533.00
990.49	5519.00
990.91	5604.00
991.34	5614.00
991.77	5596.00
992.19	5650.00
992.62	5603.00
993.05	5547.00
993.47	5590.00
993.90	5563.00
994.32	5453.00
994.75	5365.00
995.18	5339.00
995.60	5308.00
996.03	5213.00
996.45	5286.00
996.88	5268.00
997.31	5262.00
997.73	5252.00
998.16	5245.00
998.58	5277.00
999.01	5274.00
999.44	5336.00
999.86	5367.00
1000.29	5396.00
1000.71	5383.00
1001.14	5446.00
1001.56	5397.00
1001.99	5376.00
1002.41	5316.00
1002.84	5285.00
1003.27	5139.00
1003.69	5205.00
1004.12	5112.00
1004.54	5121.00
1004.97	5025.00
1005.39	4913.00
1005.82	5022.00
1006.24	4955.00
1006.67	4911.00
1007.09	4954.00
1007.52	4917.00
1007.94	4936.00
1008.37	5123.00
1008.79	5006.00
1009.22	4985.00
1009.64	4956.00
1010.07	5039.00
1010.49	5034.00
1010.92	4974.00
1011.34	5079.00
1011.77	5010.00
1012.19	5026.00
1012.62	5010.00
1013.04	4929.00
1013.46	4928.00
1013.89	4848.00
1014.31	4813.00
1014.74	4760.00
1015.16	4739.00
1015.59	4724.00
1016.01	4786.00
1016.44	4715.00
1016.86	5688.00
1017.28	4721.00
1017.71	4750.00
1018.13	4938.00
1018.56	4889.00
1018.98	4924.00
1019.40	4854.00
1019.83	4864.00
1020.25	4912.00
1020.68	4939.00
1021.10	5007.00
1021.52	4888.00
1021.95	5126.00
1022.37	5016.00
1022.79	4962.00
1023.22	4931.00
1023.64	4839.00
1024.07	4880.00
1024.49	4899.00
1024.91	4784.00
1025.34	4731.00
1025.76	4837.00
1026.18	4756.00
1026.61	4768.00
1027.03	4726.00
1027.45	4703.00
1027.88	4678.00
1028.30	4912.00
1028.72	4787.00
1029.15	4775.00
1029.57	4780.00
1029.99	4841.00
1030.41	4708.00
1030.84	4824.00
1031.26	4825.00
1031.68	4762.00
1032.11	4755.00
1032.53	4645.00
1032.95	4648.00
1033.37	4602.00
1033.80	4638.00
1034.22	4567.00
1034.64	4608.00
1035.06	4467.00
1035.49	4493.00
1035.91	4544.00
1036.33	4381.00
1036.75	4493.00
1037.18	4474.00
1037.60	4475.00
1038.02	4491.00
1038.44	4487.00
1038.87	4404.00
1039.29	4456.00
1039.71	4440.00
1040.13	4408.00
1040.55	4506.00
1040.98	4532.00
1041.40	4465.00
1041.82	4461.00
1042.24	4404.00
1042.66	4376.00
1043.09	4287.00
1043.51	4313.00
1043.93	4308.00
1044.35	4226.00
1044.77	4258.00
1045.20	4252.00
1045.62	4152.00
1046.04	4156.00
1046.46	4157.00
1046.88	4121.00
1047.30	4092.00
1047.72	4129.00
1048.15	4114.00
1048.57	4085.00
1048.99	4103.00
1049.41	4086.00
1049.83	4140.00
1050.25	4203.00
1050.67	4154.00
1051.09	4070.00
1051.52	4104.00
1051.94	3966.00
1052.36	4039.00
1052.78	3996.00
1053.20	4046.00
1053.62	4000.00
1054.04	4006.00
1054.46	3983.00
1054.88	4040.00
1055.30	3991.00
1055.72	3938.00
1056.14	3910.00
1056.57	4093.00
1056.99	3854.00
1057.41	3834.00
1057.83	3849.00
1058.25	3810.00
1058.67	3771.00
1059.09	3772.00
1059.51	3828.00
1059.93	3788.00
1060.35	3785.00
1060.77	3782.00
1061.19	3799.00
1061.61	3778.00
1062.03	3749.00
1062.45	3726.00
1062.87	3783.00
1063.29	3798.00
1063.71	3695.00
1064.13	3699.00
1064.55	3709.00
1064.97	3729.00
1065.39	3727.00
1065.81	3709.00
1066.23	3691.00
1066.65	3643.00
1067.07	3745.00
1067.49	3649.00
1067.91	3591.00
1068.33	3570.00
1068.75	3648.00
1069.17	3655.00
1069.59	3665.00
1070.00	3595.00
1070.42	3614.00
1070.84	3562.00
1071.26	3486.00
1071.68	3545.00
1072.10	3566.00
1072.52	3571.00
1072.94	3480.00
1073.36	3510.00
1073.78	3510.00
1074.20	3542.00
1074.62	3507.00
1075.03	3477.00
1075.45	3541.00
1075.87	3536.00
1076.29	3499.00
1076.71	3510.00
1077.13	3575.00
1077.55	3439.00
1077.97	3475.00
1078.38	3442.00
1078.80	3484.00
1079.22	3488.00
1079.64	3448.00
1080.06	3417.00
1080.48	3456.00
1080.89	3418.00
1081.31	3407.00
1081.73	3406.00
1082.15	3413.00
1082.57	3456.00
1082.99	3391.00
1083.40	3366.00
1083.82	3442.00
1084.24	3372.00
1084.66	3348.00
1085.08	3351.00
1085.49	3301.00
1085.91	3369.00
1086.33	4398.00
1086.75	3375.00
1087.17	3327.00
1087.58	3370.00
1088.00	3336.00
1088.42	3401.00
1088.84	3355.00
1089.25	3259.00
1089.67	3303.00
1090.09	3355.00
1090.51	3264.00
1090.92	3321.00
1091.34	3254.00
1091.76	3300.00
1092.18	3223.00
1092.59	3265.00
1093.01	3257.00
1093.43	3249.00
1093.84	3235.00
1094.26	3268.00
1094.68	3242.00
1095.10	3193.00
1095.51	3219.00
1095.93	3188.00
1096.35	3219.00
1096.76	3228.00
1097.18	3247.00
1097.60	3182.00
1098.01	3205.00
1098.43	3162.00
1098.85	3191.00
1099.26	3146.00
1099.68	3179.00
1100.10	3148.00
1100.51	3123.00
1100.93	3134.00
1101.35	3134.00
1101.76	3149.00
1102.18	3542.00
1102.60	3162.00
1103.01	3052.00
1103.43	3147.00
1103.84	3087.00
1104.26	3083.00
1104.68	3101.00
1105.09	3026.00
1105.51	3071.00
1105.92	3149.00
1106.34	3077.00
1106.76	3103.00
1107.17	3096.00
1107.59	3089.00
1108.00	3017.00
1108.42	3045.00
1108.83	3027.00
1109.25	3017.00
1109.67	2983.00
1110.08	3022.00
1110.50	3019.00
1110.91	3015.00
1111.33	2984.00
1111.74	2997.00
1112.16	3050.00
1112.57	2995.00
1112.99	3009.00
1113.41	3016.00
1113.82	2973.00
1114.24	3035.00
1114.65	2966.00
1115.07	2909.00
1115.48	2866.00
1115.90	2181.00
1116.31	2194.00
1116.73	2201.00
1117.14	2201.00
>>>>>End Processed Spectral Data<<<<<
