SpectraSuite Data File
++++++++++++++++++++++++++++++++++++
Date: Tue May 29 12:59:32 EEST 2018
User: CanSEE
Dark Spectrum Present: No
Reference Spectrum Present: No
Number of Sampled Component Spectra: 1
Spectrometers: MAYP11278
Integration Time (usec): 250000 (MAYP11278)
Spectra Averaged: 1 (MAYP11278)
Boxcar Smoothing: 0 (MAYP11278)
Correct for Electrical Dark: No (MAYP11278)
Strobe/Lamp Enabled: No (MAYP11278)
Correct for Detector Non-linearity: No (MAYP11278)
Correct for Stray Light: No (MAYP11278)
Number of Pixels in Processed Spectrum: 2068
>>>>>Begin Processed Spectral Data<<<<<
187.82	2321.00
188.30	2226.00
188.78	2196.00
189.26	2203.00
189.73	2990.00
190.21	3065.00
190.69	3193.00
191.17	3165.00
191.64	3152.00
192.12	3136.00
192.60	3158.00
193.07	3148.00
193.55	3177.00
194.03	3139.00
194.51	3179.00
194.98	3113.00
195.46	3202.00
195.94	3135.00
196.42	3167.00
196.89	3254.00
197.37	3194.00
197.85	3137.00
198.32	3161.00
198.80	3145.00
199.28	3147.00
199.76	3180.00
200.23	3160.00
200.71	3158.00
201.19	3160.00
201.66	3179.00
202.14	3203.00
202.62	3140.00
203.09	3184.00
203.57	3126.00
204.05	3200.00
204.53	3222.00
205.00	3147.00
205.48	3146.00
205.96	3201.00
206.43	3205.00
206.91	3192.00
207.39	3272.00
207.86	3161.00
208.34	3212.00
208.82	3140.00
209.29	3204.00
209.77	3187.00
210.25	3201.00
210.72	3177.00
211.20	3200.00
211.68	3174.00
212.15	3165.00
212.63	3221.00
213.11	3164.00
213.58	3129.00
214.06	3228.00
214.53	3189.00
215.01	3221.00
215.49	3195.00
215.96	3187.00
216.44	3198.00
216.92	3194.00
217.39	3159.00
217.87	3189.00
218.35	3215.00
218.82	3145.00
219.30	3109.00
219.77	3154.00
220.25	3160.00
220.73	3267.00
221.20	3148.00
221.68	3224.00
222.15	3166.00
222.63	3203.00
223.11	3172.00
223.58	3179.00
224.06	3175.00
224.53	3178.00
225.01	3133.00
225.49	3212.00
225.96	3133.00
226.44	3192.00
226.91	3221.00
227.39	3179.00
227.87	3184.00
228.34	3186.00
228.82	3218.00
229.29	3204.00
229.77	3196.00
230.24	3132.00
230.72	3212.00
231.20	3209.00
231.67	3177.00
232.15	3185.00
232.62	3144.00
233.10	3167.00
233.57	3192.00
234.05	3320.00
234.53	3193.00
235.00	3165.00
235.48	3167.00
235.95	3168.00
236.43	3230.00
236.90	3276.00
237.38	3117.00
237.85	3198.00
238.33	3181.00
238.80	3176.00
239.28	3198.00
239.75	3127.00
240.23	3198.00
240.71	3263.00
241.18	3210.00
241.66	3160.00
242.13	3230.00
242.61	3217.00
243.08	3140.00
243.56	3195.00
244.03	3206.00
244.51	3240.00
244.98	3143.00
245.46	3237.00
245.93	4187.00
246.41	3137.00
246.88	3199.00
247.36	3193.00
247.83	3184.00
248.31	3209.00
248.78	3184.00
249.26	3180.00
249.73	3234.00
250.21	3193.00
250.68	3197.00
251.16	3191.00
251.63	3248.00
252.10	3231.00
252.58	3185.00
253.05	3236.00
253.53	3215.00
254.00	3153.00
254.48	3183.00
254.95	3198.00
255.43	3226.00
255.90	3179.00
256.38	3213.00
256.85	3228.00
257.33	3216.00
257.80	3310.00
258.27	3202.00
258.75	3175.00
259.22	3176.00
259.70	3196.00
260.17	3243.00
260.65	3189.00
261.12	3193.00
261.59	3257.00
262.07	3179.00
262.54	3217.00
263.02	3198.00
263.49	3167.00
263.97	3238.00
264.44	3229.00
264.91	3204.00
265.39	3184.00
265.86	3170.00
266.34	3204.00
266.81	3195.00
267.28	3194.00
267.76	3187.00
268.23	3181.00
268.71	3094.00
269.18	3130.00
269.65	3178.00
270.13	3190.00
270.60	3217.00
271.08	3209.00
271.55	3216.00
272.02	3163.00
272.50	3174.00
272.97	3143.00
273.44	3155.00
273.92	3295.00
274.39	3188.00
274.87	3204.00
275.34	3142.00
275.81	3160.00
276.29	3197.00
276.76	3191.00
277.23	3119.00
277.71	3119.00
278.18	3074.00
278.65	3246.00
279.13	3096.00
279.60	3136.00
280.07	3398.00
280.55	3403.00
281.02	3448.00
281.50	3246.00
281.97	3305.00
282.44	3243.00
282.91	3208.00
283.39	3240.00
283.86	3213.00
284.33	3149.00
284.81	3241.00
285.28	3234.00
285.75	3201.00
286.23	3232.00
286.70	3190.00
287.17	3237.00
287.65	3266.00
288.12	3162.00
288.59	3220.00
289.07	3124.00
289.54	3257.00
290.01	3178.00
290.48	3217.00
290.96	3163.00
291.43	3210.00
291.90	3284.00
292.38	3156.00
292.85	3258.00
293.32	3153.00
293.79	3260.00
294.27	3198.00
294.74	3190.00
295.21	3225.00
295.69	3211.00
296.16	3243.00
296.63	3235.00
297.10	3241.00
297.58	3235.00
298.05	3229.00
298.52	3186.00
298.99	3277.00
299.47	3187.00
299.94	3253.00
300.41	3181.00
300.88	3247.00
301.36	3277.00
301.83	3284.00
302.30	3123.00
302.77	3223.00
303.25	3243.00
303.72	3152.00
304.19	3191.00
304.66	3173.00
305.13	3245.00
305.61	3221.00
306.08	3225.00
306.55	3236.00
307.02	3213.00
307.49	3162.00
307.97	3221.00
308.44	3199.00
308.91	3215.00
309.38	3211.00
309.86	3214.00
310.33	3217.00
310.80	3180.00
311.27	3196.00
311.74	3241.00
312.21	3200.00
312.69	3271.00
313.16	3197.00
313.63	3217.00
314.10	3213.00
314.57	3218.00
315.05	3183.00
315.52	3247.00
315.99	3261.00
316.46	3213.00
316.93	3234.00
317.40	3208.00
317.88	3338.00
318.35	3231.00
318.82	3205.00
319.29	3206.00
319.76	3249.00
320.23	3275.00
320.70	3242.00
321.18	3250.00
321.65	3154.00
322.12	3196.00
322.59	3307.00
323.06	3193.00
323.53	3286.00
324.00	3152.00
324.48	3253.00
324.95	3198.00
325.42	3248.00
325.89	3209.00
326.36	3232.00
326.83	3251.00
327.30	3266.00
327.77	3260.00
328.24	3239.00
328.72	3199.00
329.19	3225.00
329.66	3203.00
330.13	3217.00
330.60	3293.00
331.07	3274.00
331.54	3333.00
332.01	3223.00
332.48	3300.00
332.95	3258.00
333.43	3263.00
333.90	3278.00
334.37	3259.00
334.84	3250.00
335.31	3355.00
335.78	3176.00
336.25	3245.00
336.72	3254.00
337.19	3264.00
337.66	3202.00
338.13	3226.00
338.60	3313.00
339.07	3267.00
339.54	3185.00
340.01	3200.00
340.49	3232.00
340.96	3238.00
341.43	3281.00
341.90	3235.00
342.37	3245.00
342.84	3267.00
343.31	3228.00
343.78	3195.00
344.25	3217.00
344.72	3217.00
345.19	3211.00
345.66	3256.00
346.13	3199.00
346.60	3189.00
347.07	3271.00
347.54	3205.00
348.01	3253.00
348.48	3237.00
348.95	3184.00
349.42	3252.00
349.89	3257.00
350.36	3201.00
350.83	3179.00
351.30	3260.00
351.77	3313.00
352.24	3238.00
352.71	3241.00
353.18	3204.00
353.65	3276.00
354.12	3253.00
354.59	3255.00
355.06	3225.00
355.53	3298.00
356.00	3223.00
356.47	3297.00
356.94	3179.00
357.41	3364.00
357.88	3266.00
358.35	3177.00
358.82	3226.00
359.28	3229.00
359.75	3218.00
360.22	3305.00
360.69	3267.00
361.16	3235.00
361.63	3230.00
362.10	3249.00
362.57	3201.00
363.04	3215.00
363.51	3328.00
363.98	3235.00
364.45	3198.00
364.92	3252.00
365.39	3203.00
365.86	3187.00
366.32	3231.00
366.79	3214.00
367.26	3852.00
367.73	3273.00
368.20	3196.00
368.67	3269.00
369.14	3208.00
369.61	3240.00
370.08	3243.00
370.55	3223.00
371.02	3773.00
371.48	3234.00
371.95	3204.00
372.42	3174.00
372.89	3237.00
373.36	3231.00
373.83	3222.00
374.30	3185.00
374.77	3255.00
375.23	3196.00
375.70	3289.00
376.17	3218.00
376.64	3178.00
377.11	3207.00
377.58	3252.00
378.05	3242.00
378.51	3216.00
378.98	3240.00
379.45	3234.00
379.92	3253.00
380.39	3326.00
380.86	3250.00
381.33	3264.00
381.79	3266.00
382.26	3158.00
382.73	3236.00
383.20	3212.00
383.67	3253.00
384.14	3252.00
384.60	3397.00
385.07	3239.00
385.54	3220.00
386.01	3249.00
386.48	3290.00
386.94	3186.00
387.41	3211.00
387.88	3279.00
388.35	3234.00
388.82	3270.00
389.28	3231.00
389.75	3271.00
390.22	3257.00
390.69	3262.00
391.16	3254.00
391.62	3249.00
392.09	3259.00
392.56	3186.00
393.03	3207.00
393.50	3338.00
393.96	3242.00
394.43	3295.00
394.90	3226.00
395.37	3279.00
395.83	3414.00
396.30	3243.00
396.77	3290.00
397.24	3280.00
397.70	3214.00
398.17	3248.00
398.64	3223.00
399.11	3245.00
399.57	3246.00
400.04	3208.00
400.51	3274.00
400.98	3245.00
401.44	3279.00
401.91	3260.00
402.38	3314.00
402.84	3227.00
403.31	3340.00
403.78	3277.00
404.25	3326.00
404.71	3322.00
405.18	3320.00
405.65	3200.00
406.12	3299.00
406.58	3267.00
407.05	3335.00
407.52	3273.00
407.98	3906.00
408.45	3299.00
408.92	3248.00
409.38	3322.00
409.85	3220.00
410.32	3318.00
410.78	3269.00
411.25	3331.00
411.72	3271.00
412.18	3237.00
412.65	3312.00
413.12	3285.00
413.59	3288.00
414.05	3264.00
414.52	3326.00
414.98	3243.00
415.45	3322.00
415.92	3290.00
416.38	3283.00
416.85	3364.00
417.32	3285.00
417.78	3279.00
418.25	3290.00
418.72	3301.00
419.18	3300.00
419.65	3254.00
420.12	3296.00
420.58	3248.00
421.05	3274.00
421.51	3271.00
421.98	3360.00
422.45	3247.00
422.91	3279.00
423.38	3319.00
423.85	3332.00
424.31	3265.00
424.78	3301.00
425.24	3276.00
425.71	3333.00
426.18	3265.00
426.64	3312.00
427.11	3280.00
427.57	3310.00
428.04	3266.00
428.51	3305.00
428.97	3308.00
429.44	3268.00
429.90	3280.00
430.37	3380.00
430.83	3254.00
431.30	3266.00
431.77	3335.00
432.23	3339.00
432.70	3349.00
433.16	3279.00
433.63	3298.00
434.09	3267.00
434.56	3326.00
435.03	3252.00
435.49	3288.00
435.96	3316.00
436.42	3238.00
436.89	3319.00
437.35	3318.00
437.82	3287.00
438.28	3275.00
438.75	3294.00
439.21	3442.00
439.68	3278.00
440.14	3341.00
440.61	3329.00
441.07	3264.00
441.54	3280.00
442.00	3363.00
442.47	3293.00
442.94	3317.00
443.40	3291.00
443.87	3244.00
444.33	3330.00
444.80	3322.00
445.26	3316.00
445.73	3315.00
446.19	3305.00
446.65	3273.00
447.12	3343.00
447.58	3325.00
448.05	3278.00
448.51	3343.00
448.98	3362.00
449.44	3285.00
449.91	3279.00
450.37	3255.00
450.84	3282.00
451.30	3353.00
451.77	3374.00
452.23	3283.00
452.70	3377.00
453.16	3293.00
453.62	3307.00
454.09	3305.00
454.55	3333.00
455.02	3283.00
455.48	3298.00
455.95	3319.00
456.41	3257.00
456.88	3376.00
457.34	3286.00
457.80	3306.00
458.27	3246.00
458.73	3313.00
459.20	3320.00
459.66	3346.00
460.13	3228.00
460.59	3226.00
461.05	3339.00
461.52	3269.00
461.98	3252.00
462.45	3230.00
462.91	3326.00
463.37	3213.00
463.84	3246.00
464.30	3239.00
464.76	3186.00
465.23	3219.00
465.69	3271.00
466.16	3238.00
466.62	3229.00
467.08	3264.00
467.55	3188.00
468.01	3262.00
468.48	3261.00
468.94	3190.00
469.40	3132.00
469.87	3178.00
470.33	3215.00
470.79	3211.00
471.26	3171.00
471.72	3160.00
472.18	3177.00
472.65	3195.00
473.11	3242.00
473.57	3180.00
474.04	3117.00
474.50	3197.00
474.96	3140.00
475.43	3211.00
475.89	3165.00
476.35	3185.00
476.82	3168.00
477.28	3163.00
477.74	3253.00
478.21	3171.00
478.67	3195.00
479.13	3149.00
479.59	3266.00
480.06	3203.00
480.52	3199.00
480.98	3155.00
481.45	3176.00
481.91	3215.00
482.37	3135.00
482.84	3145.00
483.30	3131.00
483.76	3156.00
484.22	3234.00
484.69	3141.00
485.15	3166.00
485.61	3068.00
486.07	3155.00
486.54	3100.00
487.00	3182.00
487.46	3098.00
487.92	3132.00
488.39	3148.00
488.85	3173.00
489.31	3170.00
489.77	3219.00
490.24	3123.00
490.70	3173.00
491.16	3091.00
491.62	3152.00
492.09	3127.00
492.55	3207.00
493.01	3198.00
493.47	3177.00
493.94	3181.00
494.40	3158.00
494.86	3162.00
495.32	3162.00
495.78	3208.00
496.25	3194.00
496.71	3193.00
497.17	3285.00
497.63	3251.00
498.09	3179.00
498.56	3239.00
499.02	3202.00
499.48	3287.00
499.94	3220.00
500.40	3206.00
500.87	3224.00
501.33	3217.00
501.79	3292.00
502.25	3248.00
502.71	3524.00
503.17	3280.00
503.64	3299.00
504.10	3288.00
504.56	3334.00
505.02	3334.00
505.48	3353.00
505.94	3397.00
506.40	3403.00
506.87	3419.00
507.33	3460.00
507.79	3458.00
508.25	3407.00
508.71	3471.00
509.17	3485.00
509.63	3507.00
510.10	3556.00
510.56	3525.00
511.02	3647.00
511.48	3682.00
511.94	3595.00
512.40	3603.00
512.86	3652.00
513.32	3683.00
513.78	3662.00
514.25	3776.00
514.71	4319.00
515.17	3818.00
515.63	3878.00
516.09	3903.00
516.55	3828.00
517.01	3933.00
517.47	3902.00
517.93	3969.00
518.39	4115.00
518.85	4046.00
519.32	4061.00
519.78	4139.00
520.24	4250.00
520.70	4319.00
521.16	4387.00
521.62	4425.00
522.08	4454.00
522.54	4438.00
523.00	4534.00
523.46	4591.00
523.92	4637.00
524.38	4808.00
524.84	4716.00
525.30	4776.00
525.76	4811.00
526.22	4648.00
526.68	4669.00
527.14	4737.00
527.60	4832.00
528.06	4949.00
528.52	5033.00
528.98	5064.00
529.44	5055.00
529.90	5075.00
530.36	5106.00
530.82	5257.00
531.28	5264.00
531.74	5234.00
532.20	5226.00
532.66	5129.00
533.12	5202.00
533.58	5203.00
534.04	5255.00
534.50	5325.00
534.96	5402.00
535.42	5424.00
535.88	5475.00
536.34	5410.00
536.80	5262.00
537.26	5432.00
537.72	5438.00
538.18	5462.00
538.64	5480.00
539.10	5465.00
539.56	5642.00
540.02	5318.00
540.48	5428.00
540.94	5390.00
541.40	5425.00
541.86	5563.00
542.32	5507.00
542.78	5465.00
543.24	5563.00
543.69	5473.00
544.15	5653.00
544.61	5520.00
545.07	5526.00
545.53	5544.00
545.99	5595.00
546.45	5619.00
546.91	5611.00
547.37	5558.00
547.83	5520.00
548.29	5585.00
548.74	5563.00
549.20	5665.00
549.66	5698.00
550.12	5625.00
550.58	5586.00
551.04	5570.00
551.50	5649.00
551.96	5675.00
552.42	5720.00
552.87	5584.00
553.33	5651.00
553.79	5684.00
554.25	5654.00
554.71	5734.00
555.17	5718.00
555.63	5795.00
556.08	5655.00
556.54	5641.00
557.00	5496.00
557.46	5577.00
557.92	5682.00
558.38	5492.00
558.83	5458.00
559.29	5454.00
559.75	5433.00
560.21	5364.00
560.67	5551.00
561.13	5511.00
561.58	5418.00
562.04	5307.00
562.50	5383.00
562.96	5407.00
563.42	5433.00
563.87	5271.00
564.33	5304.00
564.79	5267.00
565.25	5268.00
565.71	5186.00
566.16	5217.00
566.62	5108.00
567.08	5116.00
567.54	5068.00
568.00	5090.00
568.45	5025.00
568.91	5036.00
569.37	4979.00
569.83	4973.00
570.28	4845.00
570.74	4850.00
571.20	4878.00
571.66	4788.00
572.11	4825.00
572.57	4818.00
573.03	4755.00
573.49	4693.00
573.94	4777.00
574.40	4813.00
574.86	4737.00
575.32	4574.00
575.77	4497.00
576.23	4530.00
576.69	4646.00
577.15	4555.00
577.60	4543.00
578.06	4456.00
578.52	4503.00
578.97	4491.00
579.43	4422.00
579.89	4471.00
580.34	4422.00
580.80	4439.00
581.26	4407.00
581.72	4452.00
582.17	4416.00
582.63	4337.00
583.09	4400.00
583.54	4393.00
584.00	4352.00
584.46	4379.00
584.91	4333.00
585.37	4423.00
585.83	4258.00
586.28	4255.00
586.74	4318.00
587.20	4266.00
587.65	4302.00
588.11	4180.00
588.57	4168.00
589.02	4050.00
589.48	4003.00
589.94	4122.00
590.39	4203.00
590.85	4161.00
591.30	4147.00
591.76	4196.00
592.22	4106.00
592.67	4160.00
593.13	4166.00
593.59	4150.00
594.04	4128.00
594.50	4112.00
594.95	4154.00
595.41	4144.00
595.87	4084.00
596.32	4189.00
596.78	4183.00
597.23	4179.00
597.69	4167.00
598.15	4062.00
598.60	4131.00
599.06	4126.00
599.51	4071.00
599.97	4089.00
600.43	4141.00
600.88	4107.00
601.34	4144.00
601.79	4078.00
602.25	4207.00
602.70	4071.00
603.16	4079.00
603.61	4041.00
604.07	4009.00
604.53	4100.00
604.98	4041.00
605.44	4088.00
605.89	4043.00
606.35	4028.00
606.80	4006.00
607.26	4032.00
607.71	3932.00
608.17	3956.00
608.62	3981.00
609.08	4083.00
609.53	3968.00
609.99	3968.00
610.44	3854.00
610.90	3958.00
611.35	3905.00
611.81	4001.00
612.26	3906.00
612.72	3870.00
613.17	4009.00
613.63	3795.00
614.08	3741.00
614.54	3842.00
614.99	3774.00
615.45	3800.00
615.90	3789.00
616.36	3724.00
616.81	3762.00
617.27	3820.00
617.72	3764.00
618.18	3737.00
618.63	3752.00
619.09	3758.00
619.54	3783.00
619.99	3768.00
620.45	3774.00
620.90	3767.00
621.36	3705.00
621.81	3757.00
622.27	3783.00
622.72	3777.00
623.18	3672.00
623.63	3669.00
624.08	3768.00
624.54	3603.00
624.99	3703.00
625.45	3693.00
625.90	3602.00
626.35	3667.00
626.81	3704.00
627.26	3641.00
627.72	3674.00
628.17	3685.00
628.62	3643.00
629.08	3695.00
629.53	3692.00
629.99	3635.00
630.44	3660.00
630.89	3679.00
631.35	3685.00
631.80	3697.00
632.26	3663.00
632.71	3661.00
633.16	3680.00
633.62	3651.00
634.07	3623.00
634.52	3618.00
634.98	3634.00
635.43	3622.00
635.88	3567.00
636.34	3607.00
636.79	3655.00
637.24	3601.00
637.70	3644.00
638.15	3631.00
638.60	3586.00
639.06	3546.00
639.51	3555.00
639.96	3482.00
640.42	3551.00
640.87	3530.00
641.32	3472.00
641.78	3507.00
642.23	3494.00
642.68	3405.00
643.14	3449.00
643.59	3490.00
644.04	3416.00
644.49	3385.00
644.95	3425.00
645.40	3407.00
645.85	3362.00
646.31	3367.00
646.76	3376.00
647.21	3394.00
647.66	3356.00
648.12	3349.00
648.57	3322.00
649.02	3353.00
649.47	3348.00
649.93	3498.00
650.38	3295.00
650.83	3308.00
651.28	3299.00
651.74	3309.00
652.19	3266.00
652.64	3325.00
653.09	3303.00
653.55	3330.00
654.00	3277.00
654.45	3325.00
654.90	3267.00
655.35	3242.00
655.81	3276.00
656.26	3203.00
656.71	3215.00
657.16	3241.00
657.62	3250.00
658.07	3202.00
658.52	3279.00
658.97	3258.00
659.42	3416.00
659.88	3239.00
660.33	3240.00
660.78	3213.00
661.23	3181.00
661.68	3171.00
662.13	3178.00
662.59	3182.00
663.04	3187.00
663.49	3176.00
663.94	3125.00
664.39	3175.00
664.84	3154.00
665.30	3193.00
665.75	3133.00
666.20	3187.00
666.65	3151.00
667.10	3264.00
667.55	3173.00
668.00	3101.00
668.46	3167.00
668.91	3131.00
669.36	3257.00
669.81	3063.00
670.26	3147.00
670.71	3185.00
671.16	3126.00
671.61	3170.00
672.06	3209.00
672.52	3107.00
672.97	3136.00
673.42	3150.00
673.87	3211.00
674.32	3129.00
674.77	3120.00
675.22	3066.00
675.67	3079.00
676.12	3131.00
676.57	3098.00
677.02	3110.00
677.47	3110.00
677.93	3204.00
678.38	3088.00
678.83	3122.00
679.28	3103.00
679.73	3083.00
680.18	3112.00
680.63	3121.00
681.08	3082.00
681.53	3071.00
681.98	3125.00
682.43	3112.00
682.88	3155.00
683.33	3178.00
683.78	3155.00
684.23	3189.00
684.68	3172.00
685.13	3179.00
685.58	3184.00
686.03	3215.00
686.48	3144.00
686.93	3186.00
687.38	3152.00
687.83	3206.00
688.28	3204.00
688.73	3389.00
689.18	3326.00
689.63	3242.00
690.08	3307.00
690.53	3373.00
690.98	3372.00
691.43	3442.00
691.88	3479.00
692.33	3607.00
692.78	3598.00
693.23	3723.00
693.68	3740.00
694.13	3785.00
694.58	3861.00
695.03	4143.00
695.48	4082.00
695.93	4143.00
696.38	4317.00
696.83	4354.00
697.28	4487.00
697.72	4550.00
698.17	4599.00
698.62	4716.00
699.07	4881.00
699.52	4913.00
699.97	5063.00
700.42	5155.00
700.87	5332.00
701.32	5572.00
701.77	5489.00
702.22	5594.00
702.67	5702.00
703.11	5875.00
703.56	6085.00
704.01	6138.00
704.46	6408.00
704.91	6540.00
705.36	6688.00
705.81	6728.00
706.26	6809.00
706.70	7004.00
707.15	7146.00
707.60	7305.00
708.05	7418.00
708.50	7653.00
708.95	7697.00
709.40	7754.00
709.84	7972.00
710.29	8114.00
710.74	8288.00
711.19	8388.00
711.64	8462.00
712.09	8673.00
712.53	8703.00
712.98	9030.00
713.43	8968.00
713.88	9157.00
714.33	9239.00
714.78	9245.00
715.22	9404.00
715.67	9578.00
716.12	9397.00
716.57	9310.00
717.02	8962.00
717.46	8853.00
717.91	8913.00
718.36	8903.00
718.81	8752.00
719.26	8791.00
719.70	9102.00
720.15	9203.00
720.60	9428.00
721.05	10127.00
721.49	10570.00
721.94	10876.00
722.39	10978.00
722.84	10823.00
723.28	10366.00
723.73	10459.00
724.18	10459.00
724.63	10747.00
725.07	10797.00
725.52	10964.00
725.97	11212.00
726.42	11308.00
726.86	11602.00
727.31	11438.00
727.76	11446.00
728.21	11822.00
728.65	11911.00
729.10	11971.00
729.55	12109.00
729.99	12344.00
730.44	12469.00
730.89	12651.00
731.33	12957.00
731.78	13222.00
732.23	13630.00
732.68	13889.00
733.12	13966.00
733.57	14380.00
734.02	14545.00
734.46	14835.00
734.91	14926.00
735.36	15026.00
735.80	15204.00
736.25	15059.00
736.70	15343.00
737.14	15445.00
737.59	15682.00
738.04	15694.00
738.48	15671.00
738.93	15658.00
739.37	15838.00
739.82	16235.00
740.27	16304.00
740.71	16140.00
741.16	16400.00
741.61	16446.00
742.05	16440.00
742.50	16583.00
742.94	16756.00
743.39	16878.00
743.84	16953.00
744.28	16944.00
744.73	17093.00
745.18	17161.00
745.62	17224.00
746.07	17377.00
746.51	17147.00
746.96	17299.00
747.40	17196.00
747.85	17144.00
748.30	17113.00
748.74	17151.00
749.19	17299.00
749.63	17326.00
750.08	17276.00
750.52	17409.00
750.97	17365.00
751.42	17493.00
751.86	17419.00
752.31	17308.00
752.75	17276.00
753.20	17200.00
753.64	17342.00
754.09	17441.00
754.53	17400.00
754.98	17615.00
755.42	17394.00
755.87	17511.00
756.31	17403.00
756.76	17108.00
757.20	17148.00
757.65	16950.00
758.09	16940.00
758.54	16332.00
758.98	15048.00
759.43	12244.00
759.87	9209.00
760.32	7294.00
760.76	7001.00
761.21	8160.00
761.65	9906.00
762.10	10240.00
762.54	9907.00
762.99	9455.00
763.43	9577.00
763.88	10152.00
764.32	10734.00
764.77	11587.00
765.21	12437.00
765.66	13167.00
766.10	13774.00
766.54	14470.00
766.99	14947.00
767.43	15522.00
767.88	15874.00
768.32	16260.00
768.77	16544.00
769.21	16644.00
769.66	16864.00
770.10	17010.00
770.54	17140.00
770.99	17054.00
771.43	17230.00
771.88	17143.00
772.32	17214.00
772.76	17041.00
773.21	17182.00
773.65	17034.00
774.10	16916.00
774.54	16907.00
774.98	16937.00
775.43	17156.00
775.87	17242.00
776.31	17408.00
776.76	17297.00
777.20	17195.00
777.65	17097.00
778.09	17127.00
778.53	16960.00
778.98	16976.00
779.42	17008.00
779.86	16880.00
780.31	16914.00
780.75	17003.00
781.19	17083.00
781.64	16953.00
782.08	17206.00
782.52	16961.00
782.97	16960.00
783.41	16711.00
783.85	16698.00
784.30	16601.00
784.74	16572.00
785.18	16528.00
785.63	16577.00
786.07	16593.00
786.51	16539.00
786.95	16559.00
787.40	16544.00
787.84	16429.00
788.28	16400.00
788.73	16256.00
789.17	15984.00
789.61	15933.00
790.05	15868.00
790.50	15777.00
790.94	15725.00
791.38	15757.00
791.82	15845.00
792.27	15870.00
792.71	15757.00
793.15	16034.00
793.59	15934.00
794.04	15681.00
794.48	15721.00
794.92	15522.00
795.36	15303.00
795.81	15365.00
796.25	15263.00
796.69	15323.00
797.13	15606.00
797.57	15640.00
798.02	15771.00
798.46	15819.00
798.90	15678.00
799.34	15668.00
799.79	15448.00
800.23	15178.00
800.67	15049.00
801.11	15036.00
801.55	15026.00
801.99	14874.00
802.44	15030.00
802.88	15137.00
803.32	15346.00
803.76	15300.00
804.20	15317.00
804.64	15292.00
805.09	15282.00
805.53	15235.00
805.97	15203.00
806.41	15029.00
806.85	14808.00
807.29	14767.00
807.74	14663.00
808.18	14617.00
808.62	14683.00
809.06	14622.00
809.50	14697.00
809.94	14770.00
810.38	14678.00
810.82	14777.00
811.27	14741.00
811.71	14331.00
812.15	14111.00
812.59	13752.00
813.03	13475.00
813.47	13073.00
813.91	12790.00
814.35	12669.00
814.79	12517.00
815.23	12379.00
815.67	12233.00
816.12	12226.00
816.56	12242.00
817.00	12329.00
817.44	12385.00
817.88	12422.00
818.32	12244.00
818.76	12274.00
819.20	12265.00
819.64	12356.00
820.08	12454.00
820.52	12840.00
820.96	13199.00
821.40	12839.00
821.84	12542.00
822.28	11921.00
822.72	11775.00
823.16	11772.00
823.60	12240.00
824.04	12896.00
824.48	13191.00
824.92	13178.00
825.36	13152.00
825.80	13009.00
826.24	12937.00
826.68	12729.00
827.12	12937.00
827.56	12702.00
828.00	12702.00
828.44	12640.00
828.88	12749.00
829.32	12872.00
829.76	12830.00
830.20	13101.00
830.64	12930.00
831.08	12902.00
831.52	12757.00
831.96	12525.00
832.40	12427.00
832.84	12545.00
833.28	12739.00
833.72	12916.00
834.16	13142.00
834.60	13479.00
835.04	13595.00
835.48	13716.00
835.91	13558.00
836.35	13523.00
836.79	13372.00
837.23	13287.00
837.67	13222.00
838.11	13213.00
838.55	13215.00
838.99	13261.00
839.43	13376.00
839.87	13583.00
840.30	13616.00
840.74	13866.00
841.18	13884.00
841.62	13949.00
842.06	13890.00
842.50	14074.00
842.94	13663.00
843.38	13550.00
843.81	13263.00
844.25	13151.00
844.69	13130.00
845.13	13264.00
845.57	13250.00
846.01	13302.00
846.45	13456.00
846.88	13534.00
847.32	13678.00
847.76	13744.00
848.20	13793.00
848.64	13799.00
849.08	13387.00
849.51	13462.00
849.95	13080.00
850.39	13087.00
850.83	13246.00
851.27	13194.00
851.70	13044.00
852.14	12972.00
852.58	12848.00
853.02	12407.00
853.46	12041.00
853.89	12128.00
854.33	12093.00
854.77	12474.00
855.21	13275.00
855.65	13578.00
856.08	13701.00
856.52	13598.00
856.96	13812.00
857.40	13390.00
857.83	13081.00
858.27	13004.00
858.71	12720.00
859.15	12883.00
859.58	12948.00
860.02	13008.00
860.46	13145.00
860.89	13526.00
861.33	13513.00
861.77	13656.00
862.21	13707.00
862.64	13743.00
863.08	13725.00
863.52	13595.00
863.95	13163.00
864.39	13127.00
864.83	12654.00
865.27	12196.00
865.70	12166.00
866.14	11837.00
866.58	11932.00
867.01	12540.00
867.45	12834.00
867.89	13107.00
868.32	13277.00
868.76	13438.00
869.20	13490.00
869.63	13420.00
870.07	13336.00
870.51	12994.00
870.94	12744.00
871.38	12651.00
871.82	12334.00
872.25	12386.00
872.69	12356.00
873.13	12511.00
873.56	12563.00
874.00	12717.00
874.43	12944.00
874.87	12889.00
875.31	13100.00
875.74	13014.00
876.18	13287.00
876.61	13163.00
877.05	13116.00
877.49	12864.00
877.92	12721.00
878.36	12480.00
878.79	12381.00
879.23	12250.00
879.67	12033.00
880.10	12066.00
880.54	12058.00
880.97	12055.00
881.41	12499.00
881.84	12772.00
882.28	13079.00
882.72	13166.00
883.15	13260.00
883.59	13354.00
884.02	13158.00
884.46	13084.00
884.89	12862.00
885.33	12692.00
885.76	12217.00
886.20	12051.00
886.63	11990.00
887.07	11732.00
887.50	11918.00
887.94	12046.00
888.37	12165.00
888.81	12420.00
889.24	12341.00
889.68	12577.00
890.11	12561.00
890.55	12891.00
890.98	12978.00
891.42	12806.00
891.85	12677.00
892.29	12563.00
892.72	12266.00
893.16	11786.00
893.59	11794.00
894.03	11419.00
894.46	11113.00
894.90	10846.00
895.33	10400.00
895.77	10414.00
896.20	10417.00
896.63	10397.00
897.07	10441.00
897.50	10332.00
897.94	10424.00
898.37	10718.00
898.81	10218.00
899.24	10114.00
899.68	10404.00
900.11	10377.00
900.54	10099.00
900.98	9932.00
901.41	9933.00
901.85	9982.00
902.28	10094.00
902.71	10125.00
903.15	10511.00
903.58	10746.00
904.02	10868.00
904.45	10873.00
904.88	10762.00
905.32	10630.00
905.75	10789.00
906.18	10327.00
906.62	10378.00
907.05	10263.00
907.48	10161.00
907.92	10153.00
908.35	10161.00
908.79	9883.00
909.22	9790.00
909.65	9659.00
910.09	9677.00
910.52	9744.00
910.95	9629.00
911.38	9755.00
911.82	9391.00
912.25	9655.00
912.68	9731.00
913.12	9753.00
913.55	9871.00
913.98	10034.00
914.42	10270.00
914.85	10456.00
915.28	10026.00
915.72	9909.00
916.15	9784.00
916.58	9775.00
917.01	9629.00
917.45	9263.00
917.88	9548.00
918.31	9729.00
918.74	10054.00
919.18	10204.00
919.61	10157.00
920.04	10323.00
920.47	10408.00
920.91	10611.00
921.34	10505.00
921.77	10545.00
922.20	10670.00
922.64	10611.00
923.07	10608.00
923.50	10386.00
923.93	10184.00
924.37	10193.00
924.80	9945.00
925.23	9873.00
925.66	9725.00
926.09	9192.00
926.53	9080.00
926.96	8792.00
927.39	8594.00
927.82	8248.00
928.25	7931.00
928.69	7855.00
929.12	7740.00
929.55	7496.00
929.98	7190.00
930.41	6951.00
930.84	6614.00
931.28	6241.00
931.71	6044.00
932.14	5630.00
932.57	5456.00
933.00	5214.00
933.43	5094.00
933.86	4985.00
934.30	4828.00
934.73	5153.00
935.16	5046.00
935.59	4821.00
936.02	4923.00
936.45	4959.00
936.88	4866.00
937.31	5118.00
937.75	5360.00
938.18	5557.00
938.61	5713.00
939.04	5809.00
939.47	5783.00
939.90	5548.00
940.33	5448.00
940.76	5141.00
941.19	5092.00
941.62	4935.00
942.05	4947.00
942.48	4675.00
942.91	4533.00
943.35	4818.00
943.78	4655.00
944.21	4567.00
944.64	4848.00
945.07	4923.00
945.50	4786.00
945.93	4875.00
946.36	5099.00
946.79	5061.00
947.22	5208.00
947.65	5208.00
948.08	4949.00
948.51	5151.00
948.94	5368.00
949.37	5266.00
949.80	5028.00
950.23	5157.00
950.66	5230.00
951.09	5231.00
951.52	5046.00
951.95	5167.00
952.38	5210.00
952.81	5480.00
953.24	5587.00
953.67	5693.00
954.10	5612.00
954.53	5751.00
954.96	5741.00
955.39	5759.00
955.82	6043.00
956.25	5880.00
956.68	5957.00
957.11	5970.00
957.53	5932.00
957.96	5894.00
958.39	5781.00
958.82	5630.00
959.25	5763.00
959.68	6028.00
960.11	6058.00
960.54	6048.00
960.97	6329.00
961.40	6488.00
961.83	6455.00
962.26	6449.00
962.68	6876.00
963.11	6932.00
963.54	6908.00
963.97	7015.00
964.40	6934.00
964.83	7141.00
965.26	7168.00
965.69	7066.00
966.11	7009.00
966.54	7063.00
966.97	7236.00
967.40	7361.00
967.83	7524.00
968.26	7377.00
968.69	7407.00
969.11	7476.00
969.54	7473.00
969.97	7540.00
970.40	7556.00
970.83	7534.00
971.26	7629.00
971.68	7717.00
972.11	7627.00
972.54	7772.00
972.97	7742.00
973.40	7641.00
973.82	7648.00
974.25	7574.00
974.68	7444.00
975.11	7431.00
975.54	7264.00
975.96	7211.00
976.39	7233.00
976.82	7312.00
977.25	7238.00
977.67	7239.00
978.10	7252.00
978.53	7340.00
978.96	7504.00
979.38	7604.00
979.81	7685.00
980.24	7958.00
980.67	7979.00
981.09	8056.00
981.52	8138.00
981.95	8103.00
982.38	8141.00
982.80	8183.00
983.23	8300.00
983.66	8333.00
984.08	8179.00
984.51	8146.00
984.94	8048.00
985.37	8051.00
985.79	7899.00
986.22	7723.00
986.65	7687.00
987.07	7682.00
987.50	7702.00
987.93	7698.00
988.35	7708.00
988.78	7833.00
989.21	7911.00
989.63	7938.00
990.06	7963.00
990.49	8062.00
990.91	8249.00
991.34	8187.00
991.77	8153.00
992.19	8199.00
992.62	8246.00
993.05	8125.00
993.47	8106.00
993.90	7976.00
994.32	7972.00
994.75	7742.00
995.18	7638.00
995.60	7543.00
996.03	7505.00
996.45	7568.00
996.88	7517.00
997.31	7474.00
997.73	7475.00
998.16	7521.00
998.58	7584.00
999.01	7597.00
999.44	7699.00
999.86	7791.00
1000.29	7788.00
1000.71	7785.00
1001.14	7776.00
1001.56	7809.00
1001.99	7771.00
1002.41	7726.00
1002.84	7578.00
1003.27	7390.00
1003.69	7388.00
1004.12	7221.00
1004.54	7092.00
1004.97	7014.00
1005.39	6893.00
1005.82	7018.00
1006.24	6959.00
1006.67	6937.00
1007.09	6924.00
1007.52	6861.00
1007.94	6872.00
1008.37	7123.00
1008.79	6992.00
1009.22	7003.00
1009.64	7085.00
1010.07	7061.00
1010.49	7012.00
1010.92	7031.00
1011.34	7068.00
1011.77	7022.00
1012.19	7016.00
1012.62	6947.00
1013.04	6857.00
1013.46	6781.00
1013.89	6694.00
1014.31	6614.00
1014.74	6579.00
1015.16	6502.00
1015.59	6498.00
1016.01	6537.00
1016.44	6509.00
1016.86	7402.00
1017.28	6517.00
1017.71	6599.00
1018.13	6750.00
1018.56	6690.00
1018.98	6766.00
1019.40	6746.00
1019.83	6716.00
1020.25	6817.00
1020.68	6824.00
1021.10	6887.00
1021.52	6925.00
1021.95	7035.00
1022.37	6928.00
1022.79	6914.00
1023.22	6838.00
1023.64	6729.00
1024.07	6731.00
1024.49	6746.00
1024.91	6607.00
1025.34	6509.00
1025.76	6653.00
1026.18	6475.00
1026.61	6434.00
1027.03	6452.00
1027.45	6452.00
1027.88	6436.00
1028.30	6566.00
1028.72	6518.00
1029.15	6537.00
1029.57	6594.00
1029.99	6708.00
1030.41	6531.00
1030.84	6559.00
1031.26	6500.00
1031.68	6496.00
1032.11	6530.00
1032.53	6331.00
1032.95	6396.00
1033.37	6296.00
1033.80	6300.00
1034.22	6129.00
1034.64	6208.00
1035.06	6041.00
1035.49	5999.00
1035.91	5906.00
1036.33	5849.00
1036.75	5867.00
1037.18	5873.00
1037.60	5842.00
1038.02	5918.00
1038.44	5933.00
1038.87	5773.00
1039.29	5876.00
1039.71	5846.00
1040.13	5856.00
1040.55	5894.00
1040.98	5872.00
1041.40	5886.00
1041.82	5812.00
1042.24	5740.00
1042.66	5711.00
1043.09	5627.00
1043.51	5590.00
1043.93	5542.00
1044.35	5524.00
1044.77	5501.00
1045.20	5444.00
1045.62	5331.00
1046.04	5359.00
1046.46	5276.00
1046.88	5203.00
1047.30	5279.00
1047.72	5220.00
1048.15	5246.00
1048.57	5199.00
1048.99	5121.00
1049.41	5217.00
1049.83	5168.00
1050.25	5197.00
1050.67	5134.00
1051.09	5134.00
1051.52	5168.00
1051.94	5027.00
1052.36	5036.00
1052.78	5079.00
1053.20	5089.00
1053.62	5014.00
1054.04	4943.00
1054.46	4977.00
1054.88	5028.00
1055.30	4942.00
1055.72	4865.00
1056.14	4904.00
1056.57	4919.00
1056.99	4700.00
1057.41	4694.00
1057.83	4681.00
1058.25	4645.00
1058.67	4656.00
1059.09	4603.00
1059.51	4646.00
1059.93	4563.00
1060.35	4529.00
1060.77	4575.00
1061.19	4582.00
1061.61	4533.00
1062.03	4465.00
1062.45	4428.00
1062.87	4459.00
1063.29	4502.00
1063.71	4484.00
1064.13	4411.00
1064.55	4387.00
1064.97	4508.00
1065.39	4365.00
1065.81	4371.00
1066.23	4378.00
1066.65	4337.00
1067.07	4379.00
1067.49	4311.00
1067.91	4266.00
1068.33	4213.00
1068.75	4299.00
1069.17	4265.00
1069.59	4211.00
1070.00	4203.00
1070.42	4192.00
1070.84	4138.00
1071.26	4102.00
1071.68	4077.00
1072.10	4123.00
1072.52	4150.00
1072.94	4069.00
1073.36	4087.00
1073.78	4091.00
1074.20	4063.00
1074.62	4070.00
1075.03	4035.00
1075.45	4056.00
1075.87	4061.00
1076.29	4030.00
1076.71	4017.00
1077.13	4094.00
1077.55	3928.00
1077.97	3973.00
1078.38	3950.00
1078.80	3965.00
1079.22	3947.00
1079.64	3936.00
1080.06	3811.00
1080.48	3877.00
1080.89	3858.00
1081.31	3843.00
1081.73	3795.00
1082.15	3793.00
1082.57	3848.00
1082.99	3799.00
1083.40	3735.00
1083.82	3830.00
1084.24	3741.00
1084.66	3699.00
1085.08	3756.00
1085.49	3691.00
1085.91	3742.00
1086.33	4752.00
1086.75	3776.00
1087.17	3690.00
1087.58	3744.00
1088.00	3693.00
1088.42	3737.00
1088.84	3697.00
1089.25	3631.00
1089.67	3690.00
1090.09	3664.00
1090.51	3584.00
1090.92	3632.00
1091.34	3569.00
1091.76	3554.00
1092.18	3520.00
1092.59	3515.00
1093.01	3530.00
1093.43	3457.00
1093.84	3512.00
1094.26	3492.00
1094.68	3461.00
1095.10	3432.00
1095.51	3512.00
1095.93	3448.00
1096.35	3462.00
1096.76	3509.00
1097.18	3495.00
1097.60	3423.00
1098.01	3400.00
1098.43	3440.00
1098.85	3386.00
1099.26	3390.00
1099.68	3394.00
1100.10	3334.00
1100.51	3336.00
1100.93	3349.00
1101.35	3335.00
1101.76	3348.00
1102.18	3753.00
1102.60	3367.00
1103.01	3261.00
1103.43	3273.00
1103.84	3246.00
1104.26	3268.00
1104.68	3311.00
1105.09	3205.00
1105.51	3217.00
1105.92	3293.00
1106.34	3211.00
1106.76	3227.00
1107.17	3237.00
1107.59	3231.00
1108.00	3153.00
1108.42	3178.00
1108.83	3143.00
1109.25	3179.00
1109.67	3102.00
1110.08	3127.00
1110.50	3117.00
1110.91	3126.00
1111.33	3073.00
1111.74	3086.00
1112.16	3112.00
1112.57	3096.00
1112.99	3060.00
1113.41	3073.00
1113.82	3014.00
1114.24	3021.00
1114.65	3042.00
1115.07	2961.00
1115.48	2912.00
1115.90	2185.00
1116.31	2199.00
1116.73	2200.00
1117.14	2203.00
>>>>>End Processed Spectral Data<<<<<
