SpectraSuite Data File
++++++++++++++++++++++++++++++++++++
Date: Tue May 29 13:19:34 EEST 2018
User: CanSEE
Dark Spectrum Present: No
Reference Spectrum Present: No
Number of Sampled Component Spectra: 1
Spectrometers: MAYP11278
Integration Time (usec): 220000 (MAYP11278)
Spectra Averaged: 1 (MAYP11278)
Boxcar Smoothing: 0 (MAYP11278)
Correct for Electrical Dark: No (MAYP11278)
Strobe/Lamp Enabled: No (MAYP11278)
Correct for Detector Non-linearity: No (MAYP11278)
Correct for Stray Light: No (MAYP11278)
Number of Pixels in Processed Spectrum: 2068
>>>>>Begin Processed Spectral Data<<<<<
187.82	2350.00
188.30	2246.00
188.78	2215.00
189.26	2220.00
189.73	3438.00
190.21	3592.00
190.69	3698.00
191.17	3707.00
191.64	3759.00
192.12	3674.00
192.60	3658.00
193.07	3656.00
193.55	3724.00
194.03	3718.00
194.51	3764.00
194.98	3682.00
195.46	3752.00
195.94	3702.00
196.42	3680.00
196.89	3829.00
197.37	3704.00
197.85	3640.00
198.32	3738.00
198.80	3640.00
199.28	3692.00
199.76	3754.00
200.23	3698.00
200.71	3721.00
201.19	3768.00
201.66	3757.00
202.14	3700.00
202.62	3688.00
203.09	3758.00
203.57	3634.00
204.05	3725.00
204.53	3760.00
205.00	3704.00
205.48	3690.00
205.96	3787.00
206.43	3709.00
206.91	3720.00
207.39	3834.00
207.86	3725.00
208.34	3732.00
208.82	3717.00
209.29	3755.00
209.77	3714.00
210.25	3672.00
210.72	3715.00
211.20	3758.00
211.68	3722.00
212.15	3674.00
212.63	3809.00
213.11	3740.00
213.58	3716.00
214.06	3797.00
214.53	3750.00
215.01	3773.00
215.49	3758.00
215.96	3747.00
216.44	3724.00
216.92	3730.00
217.39	3686.00
217.87	3737.00
218.35	3785.00
218.82	3678.00
219.30	3702.00
219.77	3704.00
220.25	3721.00
220.73	3789.00
221.20	3694.00
221.68	3757.00
222.15	3692.00
222.63	3778.00
223.11	3692.00
223.58	3773.00
224.06	3712.00
224.53	3696.00
225.01	3684.00
225.49	3731.00
225.96	3646.00
226.44	3696.00
226.91	3773.00
227.39	3708.00
227.87	3761.00
228.34	3773.00
228.82	3739.00
229.29	3702.00
229.77	3759.00
230.24	3712.00
230.72	3725.00
231.20	3786.00
231.67	3764.00
232.15	3708.00
232.62	3680.00
233.10	3736.00
233.57	3775.00
234.05	3918.00
234.53	3729.00
235.00	3702.00
235.48	3723.00
235.95	3773.00
236.43	3823.00
236.90	3836.00
237.38	3737.00
237.85	3703.00
238.33	3696.00
238.80	3753.00
239.28	3674.00
239.75	3650.00
240.23	3772.00
240.71	3768.00
241.18	3706.00
241.66	3736.00
242.13	3782.00
242.61	3777.00
243.08	3680.00
243.56	3719.00
244.03	3758.00
244.51	3812.00
244.98	3706.00
245.46	3777.00
245.93	5776.00
246.41	3680.00
246.88	3724.00
247.36	3750.00
247.83	3765.00
248.31	3816.00
248.78	3662.00
249.26	3747.00
249.73	3789.00
250.21	3782.00
250.68	3825.00
251.16	3749.00
251.63	3866.00
252.10	3825.00
252.58	3746.00
253.05	3806.00
253.53	3789.00
254.00	3759.00
254.48	3722.00
254.95	3767.00
255.43	3796.00
255.90	3739.00
256.38	3762.00
256.85	3790.00
257.33	3826.00
257.80	3863.00
258.27	3800.00
258.75	3714.00
259.22	3766.00
259.70	3710.00
260.17	3808.00
260.65	3725.00
261.12	3735.00
261.59	3837.00
262.07	3747.00
262.54	3838.00
263.02	3762.00
263.49	3700.00
263.97	3826.00
264.44	3797.00
264.91	3712.00
265.39	3739.00
265.86	3843.00
266.34	3788.00
266.81	3764.00
267.28	3749.00
267.76	3809.00
268.23	3748.00
268.71	3654.00
269.18	3680.00
269.65	3708.00
270.13	3801.00
270.60	3797.00
271.08	3748.00
271.55	3734.00
272.02	3732.00
272.50	3744.00
272.97	3666.00
273.44	3747.00
273.92	3882.00
274.39	3817.00
274.87	3773.00
275.34	3744.00
275.81	3688.00
276.29	3761.00
276.76	3761.00
277.23	3628.00
277.71	3668.00
278.18	3605.00
278.65	3844.00
279.13	3676.00
279.60	3672.00
280.07	4024.00
280.55	3966.00
281.02	4025.00
281.50	3832.00
281.97	3926.00
282.44	3773.00
282.91	3772.00
283.39	3789.00
283.86	3759.00
284.33	3763.00
284.81	3809.00
285.28	3812.00
285.75	3785.00
286.23	3761.00
286.70	3712.00
287.17	3745.00
287.65	3862.00
288.12	3736.00
288.59	3803.00
289.07	3664.00
289.54	3832.00
290.01	3724.00
290.48	3768.00
290.96	3737.00
291.43	3774.00
291.90	3890.00
292.38	3732.00
292.85	3844.00
293.32	3741.00
293.79	3821.00
294.27	3770.00
294.74	3726.00
295.21	3814.00
295.69	3812.00
296.16	3848.00
296.63	3889.00
297.10	3812.00
297.58	3822.00
298.05	3810.00
298.52	3745.00
298.99	3860.00
299.47	3791.00
299.94	3822.00
300.41	3749.00
300.88	3843.00
301.36	3845.00
301.83	3836.00
302.30	3734.00
302.77	3812.00
303.25	3834.00
303.72	3737.00
304.19	3775.00
304.66	3729.00
305.13	3805.00
305.61	3793.00
306.08	3761.00
306.55	3791.00
307.02	3712.00
307.49	3779.00
307.97	3750.00
308.44	3766.00
308.91	3801.00
309.38	3792.00
309.86	3837.00
310.33	3786.00
310.80	3830.00
311.27	3780.00
311.74	3836.00
312.21	3767.00
312.69	3884.00
313.16	3749.00
313.63	3766.00
314.10	3820.00
314.57	3788.00
315.05	3745.00
315.52	3839.00
315.99	3828.00
316.46	3804.00
316.93	3787.00
317.40	3789.00
317.88	3938.00
318.35	3766.00
318.82	3768.00
319.29	3710.00
319.76	3844.00
320.23	3878.00
320.70	3860.00
321.18	3784.00
321.65	3702.00
322.12	3730.00
322.59	3890.00
323.06	3792.00
323.53	3938.00
324.00	3752.00
324.48	3818.00
324.95	3803.00
325.42	3756.00
325.89	3754.00
326.36	3808.00
326.83	3787.00
327.30	3805.00
327.77	3805.00
328.24	3789.00
328.72	3759.00
329.19	3820.00
329.66	3766.00
330.13	3775.00
330.60	3843.00
331.07	3820.00
331.54	3894.00
332.01	3765.00
332.48	3914.00
332.95	3852.00
333.43	3802.00
333.90	3856.00
334.37	3804.00
334.84	3808.00
335.31	4004.00
335.78	3809.00
336.25	3834.00
336.72	3784.00
337.19	3827.00
337.66	3817.00
338.13	3779.00
338.60	3853.00
339.07	3842.00
339.54	3730.00
340.01	3729.00
340.49	3725.00
340.96	3782.00
341.43	3888.00
341.90	3748.00
342.37	3763.00
342.84	3826.00
343.31	3795.00
343.78	3749.00
344.25	3756.00
344.72	3784.00
345.19	3785.00
345.66	3820.00
346.13	3772.00
346.60	3725.00
347.07	3848.00
347.54	3779.00
348.01	3839.00
348.48	3784.00
348.95	3706.00
349.42	3777.00
349.89	3828.00
350.36	3784.00
350.83	3749.00
351.30	3801.00
351.77	3866.00
352.24	3813.00
352.71	3768.00
353.18	3805.00
353.65	3832.00
354.12	3838.00
354.59	3820.00
355.06	3829.00
355.53	3889.00
356.00	3716.00
356.47	3920.00
356.94	3748.00
357.41	3918.00
357.88	3860.00
358.35	3722.00
358.82	3755.00
359.28	3792.00
359.75	3776.00
360.22	3890.00
360.69	3890.00
361.16	3758.00
361.63	3817.00
362.10	3802.00
362.57	3775.00
363.04	3771.00
363.51	3905.00
363.98	3791.00
364.45	3789.00
364.92	3806.00
365.39	3805.00
365.86	3787.00
366.32	3807.00
366.79	3785.00
367.26	4634.00
367.73	4178.00
368.20	3726.00
368.67	3826.00
369.14	3748.00
369.61	3841.00
370.08	3819.00
370.55	3743.00
371.02	4583.00
371.48	3841.00
371.95	3732.00
372.42	3753.00
372.89	3788.00
373.36	3823.00
373.83	3724.00
374.30	3763.00
374.77	3812.00
375.23	3759.00
375.70	3894.00
376.17	3758.00
376.64	3767.00
377.11	3753.00
377.58	3812.00
378.05	3820.00
378.51	3806.00
378.98	3820.00
379.45	3758.00
379.92	3802.00
380.39	3969.00
380.86	3785.00
381.33	3902.00
381.79	3864.00
382.26	3724.00
382.73	3812.00
383.20	3820.00
383.67	3876.00
384.14	3766.00
384.60	4082.00
385.07	3787.00
385.54	3836.00
386.01	3747.00
386.48	3928.00
386.94	3758.00
387.41	3778.00
387.88	3855.00
388.35	3824.00
388.82	3867.00
389.28	3768.00
389.75	3836.00
390.22	3803.00
390.69	3834.00
391.16	3822.00
391.62	3829.00
392.09	3797.00
392.56	3791.00
393.03	3788.00
393.50	3916.00
393.96	3809.00
394.43	3865.00
394.90	3764.00
395.37	3850.00
395.83	4057.00
396.30	3748.00
396.77	3810.00
397.24	3886.00
397.70	3770.00
398.17	3812.00
398.64	3810.00
399.11	3811.00
399.57	3903.00
400.04	3780.00
400.51	3890.00
400.98	3841.00
401.44	3845.00
401.91	3828.00
402.38	3864.00
402.84	3825.00
403.31	3906.00
403.78	3842.00
404.25	3940.00
404.71	3892.00
405.18	3878.00
405.65	3823.00
406.12	3918.00
406.58	3852.00
407.05	3956.00
407.52	3827.00
407.98	4682.00
408.45	3832.00
408.92	3823.00
409.38	3912.00
409.85	3817.00
410.32	3896.00
410.78	3805.00
411.25	3960.00
411.72	3858.00
412.18	3765.00
412.65	3890.00
413.12	3852.00
413.59	3869.00
414.05	3890.00
414.52	3954.00
414.98	3817.00
415.45	3910.00
415.92	3890.00
416.38	3826.00
416.85	3971.00
417.32	3878.00
417.78	3867.00
418.25	3862.00
418.72	3878.00
419.18	3922.00
419.65	3809.00
420.12	3930.00
420.58	3826.00
421.05	3883.00
421.51	3878.00
421.98	3882.00
422.45	3844.00
422.91	3843.00
423.38	3902.00
423.85	3940.00
424.31	3868.00
424.78	3944.00
425.24	3846.00
425.71	3981.00
426.18	3843.00
426.64	3982.00
427.11	3904.00
427.57	3904.00
428.04	3816.00
428.51	3926.00
428.97	3872.00
429.44	3814.00
429.90	3884.00
430.37	4021.00
430.83	3784.00
431.30	3890.00
431.77	3970.00
432.23	3944.00
432.70	3874.00
433.16	3878.00
433.63	3864.00
434.09	3848.00
434.56	3906.00
435.03	3846.00
435.49	3907.00
435.96	3920.00
436.42	3874.00
436.89	3962.00
437.35	3894.00
437.82	3888.00
438.28	3860.00
438.75	3856.00
439.21	4108.00
439.68	3906.00
440.14	3945.00
440.61	3988.00
441.07	3857.00
441.54	3912.00
442.00	4065.00
442.47	3850.00
442.94	3972.00
443.40	3958.00
443.87	3843.00
444.33	4000.00
444.80	3936.00
445.26	3906.00
445.73	3890.00
446.19	3942.00
446.65	3907.00
447.12	3970.00
447.58	3882.00
448.05	3878.00
448.51	3976.00
448.98	3960.00
449.44	3910.00
449.91	3924.00
450.37	3905.00
450.84	3945.00
451.30	3952.00
451.77	3956.00
452.23	3900.00
452.70	4021.00
453.16	3938.00
453.62	3949.00
454.09	3948.00
454.55	3956.00
455.02	3922.00
455.48	3960.00
455.95	3989.00
456.41	3958.00
456.88	4026.00
457.34	3946.00
457.80	3888.00
458.27	3890.00
458.73	3970.00
459.20	3981.00
459.66	3952.00
460.13	3888.00
460.59	3904.00
461.05	3978.00
461.52	3964.00
461.98	3823.00
462.45	3862.00
462.91	3980.00
463.37	3868.00
463.84	3908.00
464.30	3890.00
464.76	3836.00
465.23	3811.00
465.69	3950.00
466.16	3898.00
466.62	3892.00
467.08	3895.00
467.55	3847.00
468.01	3896.00
468.48	3897.00
468.94	3851.00
469.40	3792.00
469.87	3874.00
470.33	3870.00
470.79	3841.00
471.26	3840.00
471.72	3804.00
472.18	3818.00
472.65	3830.00
473.11	3924.00
473.57	3879.00
474.04	3766.00
474.50	3821.00
474.96	3787.00
475.43	3874.00
475.89	3819.00
476.35	3869.00
476.82	3831.00
477.28	3836.00
477.74	3881.00
478.21	3880.00
478.67	3818.00
479.13	3852.00
479.59	3896.00
480.06	3841.00
480.52	3854.00
480.98	3836.00
481.45	3818.00
481.91	3821.00
482.37	3776.00
482.84	3880.00
483.30	3767.00
483.76	3838.00
484.22	3920.00
484.69	3865.00
485.15	3832.00
485.61	3710.00
486.07	3778.00
486.54	3715.00
487.00	3813.00
487.46	3762.00
487.92	3773.00
488.39	3796.00
488.85	3826.00
489.31	3869.00
489.77	3858.00
490.24	3802.00
490.70	3834.00
491.16	3796.00
491.62	3785.00
492.09	3787.00
492.55	3887.00
493.01	3874.00
493.47	3860.00
493.94	3874.00
494.40	3880.00
494.86	3843.00
495.32	3847.00
495.78	3913.00
496.25	3870.00
496.71	3924.00
497.17	3997.00
497.63	4002.00
498.09	3878.00
498.56	3944.00
499.02	3940.00
499.48	4074.00
499.94	3998.00
500.40	3890.00
500.87	4024.00
501.33	3950.00
501.79	4015.00
502.25	4004.00
502.71	4363.00
503.17	4070.00
503.64	4063.00
504.10	4020.00
504.56	4125.00
505.02	4156.00
505.48	4134.00
505.94	4182.00
506.40	4290.00
506.87	4216.00
507.33	4238.00
507.79	4280.00
508.25	4212.00
508.71	4370.00
509.17	4288.00
509.63	4372.00
510.10	4382.00
510.56	4408.00
511.02	4542.00
511.48	4595.00
511.94	4526.00
512.40	4537.00
512.86	4576.00
513.32	4704.00
513.78	4545.00
514.25	4789.00
514.71	5544.00
515.17	4718.00
515.63	4920.00
516.09	4900.00
516.55	4844.00
517.01	4994.00
517.47	4999.00
517.93	5048.00
518.39	5244.00
518.85	5210.00
519.32	5244.00
519.78	5348.00
520.24	5408.00
520.70	5570.00
521.16	5666.00
521.62	5694.00
522.08	5746.00
522.54	5748.00
523.00	5892.00
523.46	6084.00
523.92	5998.00
524.38	6292.00
524.84	6153.00
525.30	6264.00
525.76	6250.00
526.22	6127.00
526.68	6075.00
527.14	6210.00
527.60	6346.00
528.06	6492.00
528.52	6712.00
528.98	6694.00
529.44	6600.00
529.90	6692.00
530.36	6853.00
530.82	6844.00
531.28	6961.00
531.74	6880.00
532.20	6742.00
532.66	6782.00
533.12	6983.00
533.58	7012.00
534.04	6914.00
534.50	7066.00
534.96	7133.00
535.42	7351.00
535.88	7192.00
536.34	7148.00
536.80	7026.00
537.26	7262.00
537.72	7294.00
538.18	7238.00
538.64	7365.00
539.10	7258.00
539.56	7508.00
540.02	7092.00
540.48	7232.00
540.94	7268.00
541.40	7280.00
541.86	7392.00
542.32	7342.00
542.78	7321.00
543.24	7494.00
543.69	7402.00
544.15	7601.00
544.61	7562.00
545.07	7510.00
545.53	7448.00
545.99	7556.00
546.45	7548.00
546.91	7496.00
547.37	7482.00
547.83	7526.00
548.29	7550.00
548.74	7617.00
549.20	7592.00
549.66	7711.00
550.12	7728.00
550.58	7652.00
551.04	7730.00
551.50	7665.00
551.96	7822.00
552.42	7690.00
552.87	7639.00
553.33	7701.00
553.79	7764.00
554.25	7791.00
554.71	7802.00
555.17	7721.00
555.63	7784.00
556.08	7684.00
556.54	7704.00
557.00	7478.00
557.46	7551.00
557.92	7684.00
558.38	7388.00
558.83	7390.00
559.29	7452.00
559.75	7395.00
560.21	7458.00
560.67	7500.00
561.13	7455.00
561.58	7315.00
562.04	7382.00
562.50	7338.00
562.96	7410.00
563.42	7351.00
563.87	7164.00
564.33	7230.00
564.79	7198.00
565.25	7105.00
565.71	7138.00
566.16	7108.00
566.62	7028.00
567.08	7060.00
567.54	7064.00
568.00	6865.00
568.45	6818.00
568.91	6812.00
569.37	6798.00
569.83	6770.00
570.28	6680.00
570.74	6578.00
571.20	6590.00
571.66	6604.00
572.11	6548.00
572.57	6580.00
573.03	6468.00
573.49	6435.00
573.94	6375.00
574.40	6468.00
574.86	6410.00
575.32	6280.00
575.77	6184.00
576.23	6150.00
576.69	6277.00
577.15	6142.00
577.60	6116.00
578.06	6076.00
578.52	6120.00
578.97	6097.00
579.43	6041.00
579.89	6148.00
580.34	6090.00
580.80	5998.00
581.26	6040.00
581.72	5994.00
582.17	6052.00
582.63	5884.00
583.09	5964.00
583.54	5964.00
584.00	5917.00
584.46	5933.00
584.91	5818.00
585.37	5940.00
585.83	5734.00
586.28	5740.00
586.74	5846.00
587.20	5791.00
587.65	5766.00
588.11	5596.00
588.57	5614.00
589.02	5454.00
589.48	5456.00
589.94	5565.00
590.39	5666.00
590.85	5632.00
591.30	5618.00
591.76	5652.00
592.22	5614.00
592.67	5584.00
593.13	5573.00
593.59	5633.00
594.04	5612.00
594.50	5538.00
594.95	5580.00
595.41	5510.00
595.87	5462.00
596.32	5555.00
596.78	5633.00
597.23	5638.00
597.69	5500.00
598.15	5442.00
598.60	5480.00
599.06	5588.00
599.51	5456.00
599.97	5596.00
600.43	5542.00
600.88	5502.00
601.34	5528.00
601.79	5382.00
602.25	5614.00
602.70	5488.00
603.16	5518.00
603.61	5437.00
604.07	5460.00
604.53	5500.00
604.98	5437.00
605.44	5470.00
605.89	5424.00
606.35	5310.00
606.80	5413.00
607.26	5377.00
607.71	5362.00
608.17	5386.00
608.62	5316.00
609.08	5468.00
609.53	5302.00
609.99	5210.00
610.44	5236.00
610.90	5228.00
611.35	5156.00
611.81	5288.00
612.26	5128.00
612.72	5140.00
613.17	5297.00
613.63	5049.00
614.08	5014.00
614.54	5050.00
614.99	5092.00
615.45	5028.00
615.90	5049.00
616.36	4984.00
616.81	5003.00
617.27	4986.00
617.72	5036.00
618.18	5042.00
618.63	5036.00
619.09	4938.00
619.54	5008.00
619.99	5023.00
620.45	5050.00
620.90	4950.00
621.36	4865.00
621.81	4948.00
622.27	4978.00
622.72	4998.00
623.18	4887.00
623.63	4851.00
624.08	4899.00
624.54	4845.00
624.99	4851.00
625.45	4824.00
625.90	4806.00
626.35	4912.00
626.81	4856.00
627.26	4846.00
627.72	4834.00
628.17	4928.00
628.62	4830.00
629.08	4854.00
629.53	4850.00
629.99	4791.00
630.44	4831.00
630.89	4854.00
631.35	4860.00
631.80	4790.00
632.26	4927.00
632.71	4802.00
633.16	4835.00
633.62	4796.00
634.07	4803.00
634.52	4724.00
634.98	4786.00
635.43	4780.00
635.88	4757.00
636.34	4820.00
636.79	4763.00
637.24	4771.00
637.70	4833.00
638.15	4827.00
638.60	4722.00
639.06	4734.00
639.51	4643.00
639.96	4548.00
640.42	4680.00
640.87	4718.00
641.32	4541.00
641.78	4518.00
642.23	4574.00
642.68	4442.00
643.14	4440.00
643.59	4556.00
644.04	4495.00
644.49	4438.00
644.95	4446.00
645.40	4414.00
645.85	4426.00
646.31	4382.00
646.76	4402.00
647.21	4386.00
647.66	4342.00
648.12	4331.00
648.57	4304.00
649.02	4333.00
649.47	4284.00
649.93	4518.00
650.38	4288.00
650.83	4249.00
651.28	4248.00
651.74	4269.00
652.19	4186.00
652.64	4248.00
653.09	4196.00
653.55	4216.00
654.00	4238.00
654.45	4226.00
654.90	4218.00
655.35	4128.00
655.81	4128.00
656.26	3990.00
656.71	4124.00
657.16	4168.00
657.62	4214.00
658.07	4130.00
658.52	4212.00
658.97	4068.00
659.42	4290.00
659.88	4095.00
660.33	4162.00
660.78	4096.00
661.23	4046.00
661.68	4052.00
662.13	3983.00
662.59	3948.00
663.04	4088.00
663.49	3984.00
663.94	3964.00
664.39	3983.00
664.84	3922.00
665.30	4002.00
665.75	3900.00
666.20	3976.00
666.65	4003.00
667.10	4062.00
667.55	4002.00
668.00	3846.00
668.46	3932.00
668.91	3914.00
669.36	4038.00
669.81	3816.00
670.26	3875.00
670.71	3919.00
671.16	3910.00
671.61	3954.00
672.06	4004.00
672.52	3914.00
672.97	3896.00
673.42	3966.00
673.87	4068.00
674.32	3863.00
674.77	3892.00
675.22	3827.00
675.67	3809.00
676.12	3858.00
676.57	3866.00
677.02	3900.00
677.47	3922.00
677.93	4028.00
678.38	3818.00
678.83	3844.00
679.28	3930.00
679.73	3844.00
680.18	3890.00
680.63	3872.00
681.08	3803.00
681.53	3792.00
681.98	3880.00
682.43	3960.00
682.88	3972.00
683.33	3966.00
683.78	3936.00
684.23	4034.00
684.68	4037.00
685.13	3986.00
685.58	4054.00
686.03	3966.00
686.48	3940.00
686.93	3954.00
687.38	3958.00
687.83	4062.00
688.28	4086.00
688.73	4283.00
689.18	4239.00
689.63	4198.00
690.08	4342.00
690.53	4344.00
690.98	4396.00
691.43	4555.00
691.88	4520.00
692.33	4656.00
692.78	4828.00
693.23	4997.00
693.68	5032.00
694.13	5124.00
694.58	5290.00
695.03	5570.00
695.48	5566.00
695.93	5734.00
696.38	5978.00
696.83	6045.00
697.28	6192.00
697.72	6334.00
698.17	6406.00
698.62	6716.00
699.07	6843.00
699.52	6990.00
699.97	7110.00
700.42	7366.00
700.87	7530.00
701.32	7939.00
701.77	7853.00
702.22	8099.00
702.67	8244.00
703.11	8528.00
703.56	8769.00
704.01	8966.00
704.46	9194.00
704.91	9453.00
705.36	9499.00
705.81	9822.00
706.26	9866.00
706.70	10109.00
707.15	10384.00
707.60	10528.00
708.05	10828.00
708.50	11028.00
708.95	11232.00
709.40	11318.00
709.84	11616.00
710.29	11649.00
710.74	11919.00
711.19	12118.00
711.64	12431.00
712.09	12494.00
712.53	12702.00
712.98	13114.00
713.43	13187.00
713.88	13362.00
714.33	13458.00
714.78	13580.00
715.22	13624.00
715.67	13972.00
716.12	13816.00
716.57	13488.00
717.02	13146.00
717.46	13052.00
717.91	12982.00
718.36	12992.00
718.81	12818.00
719.26	12972.00
719.70	13366.00
720.15	13539.00
720.60	14080.00
721.05	15163.00
721.49	15755.00
721.94	15978.00
722.39	16096.00
722.84	15899.00
723.28	15414.00
723.73	15550.00
724.18	15583.00
724.63	16029.00
725.07	16050.00
725.52	16432.00
725.97	16666.00
726.42	16940.00
726.86	17262.00
727.31	17222.00
727.76	17524.00
728.21	17754.00
728.65	17668.00
729.10	17824.00
729.55	18386.00
729.99	18786.00
730.44	18830.00
730.89	19322.00
731.33	19759.00
731.78	20030.00
732.23	20797.00
732.68	21050.00
733.12	21606.00
733.57	21967.00
734.02	22568.00
734.46	22674.00
734.91	22860.00
735.36	22806.00
735.80	23362.00
736.25	23146.00
736.70	23560.00
737.14	23734.00
737.59	24164.00
738.04	24014.00
738.48	23993.00
738.93	24146.00
739.37	24402.00
739.82	24791.00
740.27	25164.00
740.71	25152.00
741.16	25424.00
741.61	25400.00
742.05	25548.00
742.50	25716.00
742.94	25868.00
743.39	26076.00
743.84	26098.00
744.28	26163.00
744.73	26355.00
745.18	26639.00
745.62	26787.00
746.07	26913.00
746.51	26904.00
746.96	26798.00
747.40	26866.00
747.85	26792.00
748.30	26996.00
748.74	26936.00
749.19	26704.00
749.63	27086.00
750.08	27076.00
750.52	27031.00
750.97	27082.00
751.42	26984.00
751.86	27107.00
752.31	27200.00
752.75	27097.00
753.20	27064.00
753.64	27170.00
754.09	27240.00
754.53	27269.00
754.98	27218.00
755.42	27410.00
755.87	27178.00
756.31	27082.00
756.76	26782.00
757.20	26792.00
757.65	26463.00
758.09	26084.00
758.54	25200.00
758.98	22382.00
759.43	18056.00
759.87	13356.00
760.32	10840.00
760.76	10756.00
761.21	13072.00
761.65	15290.00
762.10	16007.00
762.54	14976.00
762.99	14531.00
763.43	14816.00
763.88	15732.00
764.32	16842.00
764.77	18326.00
765.21	19478.00
765.66	20487.00
766.10	21558.00
766.54	22748.00
766.99	23558.00
767.43	24268.00
767.88	24928.00
768.32	25343.00
768.77	25789.00
769.21	26089.00
769.66	26194.00
770.10	26561.00
770.54	26624.00
770.99	26806.00
771.43	26716.00
771.88	26541.00
772.32	26604.00
772.76	26552.00
773.21	26592.00
773.65	26369.00
774.10	26418.00
774.54	26156.00
774.98	26240.00
775.43	26772.00
775.87	26927.00
776.31	26881.00
776.76	27032.00
777.20	26706.00
777.65	26612.00
778.09	26520.00
778.53	26484.00
778.98	26202.00
779.42	26287.00
779.86	26333.00
780.31	26281.00
780.75	26414.00
781.19	26408.00
781.64	26516.00
782.08	26658.00
782.52	26532.00
782.97	26268.00
783.41	26128.00
783.85	25928.00
784.30	25734.00
784.74	25605.00
785.18	25492.00
785.63	25710.00
786.07	25606.00
786.51	25674.00
786.95	25782.00
787.40	25522.00
787.84	25408.00
788.28	25348.00
788.73	25121.00
789.17	25099.00
789.61	24660.00
790.05	24658.00
790.50	24398.00
790.94	24392.00
791.38	24394.00
791.82	24377.00
792.27	24466.00
792.71	24548.00
793.15	24870.00
793.59	24620.00
794.04	24526.00
794.48	24446.00
794.92	24114.00
795.36	24017.00
795.81	23706.00
796.25	23733.00
796.69	23845.00
797.13	24142.00
797.57	24118.00
798.02	24338.00
798.46	24482.00
798.90	24280.00
799.34	23922.00
799.79	23976.00
800.23	23586.00
800.67	23327.00
801.11	23354.00
801.55	23180.00
801.99	23042.00
802.44	23148.00
802.88	23410.00
803.32	23606.00
803.76	23512.00
804.20	23642.00
804.64	23602.00
805.09	23606.00
805.53	23730.00
805.97	23310.00
806.41	23270.00
806.85	23051.00
807.29	22682.00
807.74	22558.00
808.18	22636.00
808.62	22526.00
809.06	22578.00
809.50	22684.00
809.94	22814.00
810.38	22724.00
810.82	22801.00
811.27	22634.00
811.71	22190.00
812.15	21814.00
812.59	21202.00
813.03	20760.00
813.47	20193.00
813.91	19574.00
814.35	19522.00
814.79	19276.00
815.23	19104.00
815.67	18820.00
816.12	19002.00
816.56	18763.00
817.00	19109.00
817.44	19358.00
817.88	19220.00
818.32	19005.00
818.76	19087.00
819.20	19072.00
819.64	19300.00
820.08	19341.00
820.52	19878.00
820.96	20252.00
821.40	19646.00
821.84	19056.00
822.28	18276.00
822.72	18302.00
823.16	18196.00
823.60	19148.00
824.04	20346.00
824.48	20484.00
824.92	20524.00
825.36	20422.00
825.80	20125.00
826.24	19812.00
826.68	19684.00
827.12	19772.00
827.56	19316.00
828.00	19452.00
828.44	19510.00
828.88	19796.00
829.32	20052.00
829.76	20018.00
830.20	20519.00
830.64	20060.00
831.08	20044.00
831.52	19832.00
831.96	19518.00
832.40	19198.00
832.84	19512.00
833.28	19764.00
833.72	19996.00
834.16	20324.00
834.60	20696.00
835.04	21064.00
835.48	21139.00
835.91	21104.00
836.35	21108.00
836.79	20820.00
837.23	20740.00
837.67	20512.00
838.11	20396.00
838.55	20464.00
838.99	20451.00
839.43	20614.00
839.87	21028.00
840.30	21090.00
840.74	21382.00
841.18	21474.00
841.62	21560.00
842.06	21726.00
842.50	21552.00
842.94	21376.00
843.38	21080.00
843.81	20724.00
844.25	20604.00
844.69	20426.00
845.13	20308.00
845.57	20296.00
846.01	20454.00
846.45	20619.00
846.88	20850.00
847.32	21088.00
847.76	21136.00
848.20	21330.00
848.64	21068.00
849.08	20920.00
849.51	21008.00
849.95	20306.00
850.39	20568.00
850.83	20800.00
851.27	20392.00
851.70	20402.00
852.14	20068.00
852.58	19874.00
853.02	18938.00
853.46	18621.00
853.89	18572.00
854.33	18599.00
854.77	19382.00
855.21	20580.00
855.65	21139.00
856.08	21294.00
856.52	21308.00
856.96	21308.00
857.40	20632.00
857.83	20521.00
858.27	20210.00
858.71	19846.00
859.15	19714.00
859.58	19934.00
860.02	20169.00
860.46	20276.00
860.89	20761.00
861.33	20856.00
861.77	21156.00
862.21	21306.00
862.64	21334.00
863.08	21322.00
863.52	21153.00
863.95	20558.00
864.39	20389.00
864.83	19550.00
865.27	18684.00
865.70	18746.00
866.14	18264.00
866.58	18402.00
867.01	19208.00
867.45	19734.00
867.89	20234.00
868.32	20649.00
868.76	20698.00
869.20	20908.00
869.63	21018.00
870.07	20726.00
870.51	20246.00
870.94	19973.00
871.38	19468.00
871.82	19244.00
872.25	19050.00
872.69	18880.00
873.13	18984.00
873.56	19368.00
874.00	19566.00
874.43	19844.00
874.87	19986.00
875.31	20326.00
875.74	20280.00
876.18	20488.00
876.61	20514.00
877.05	20216.00
877.49	20054.00
877.92	19786.00
878.36	19576.00
878.79	19248.00
879.23	18880.00
879.67	18476.00
880.10	18647.00
880.54	18532.00
880.97	18778.00
881.41	19357.00
881.84	19714.00
882.28	19918.00
882.72	20252.00
883.15	20514.00
883.59	20614.00
884.02	20532.00
884.46	20352.00
884.89	19978.00
885.33	19794.00
885.76	19176.00
886.20	18886.00
886.63	18706.00
887.07	18411.00
887.50	18520.00
887.94	18650.00
888.37	18681.00
888.81	18986.00
889.24	18998.00
889.68	19334.00
890.11	19552.00
890.55	19566.00
890.98	19926.00
891.42	19836.00
891.85	19658.00
892.29	19473.00
892.72	19022.00
893.16	18438.00
893.59	18193.00
894.03	17797.00
894.46	17105.00
894.90	16596.00
895.33	15952.00
895.77	15884.00
896.20	15858.00
896.63	15868.00
897.07	16004.00
897.50	15732.00
897.94	15994.00
898.37	16539.00
898.81	15480.00
899.24	15720.00
899.68	16466.00
900.11	16022.00
900.54	15600.00
900.98	15476.00
901.41	15424.00
901.85	15490.00
902.28	15450.00
902.71	15688.00
903.15	16218.00
903.58	16594.00
904.02	16626.00
904.45	16604.00
904.88	16450.00
905.32	16212.00
905.75	16208.00
906.18	15875.00
906.62	15964.00
907.05	15631.00
907.48	15734.00
907.92	15452.00
908.35	15688.00
908.79	15404.00
909.22	15188.00
909.65	15006.00
910.09	14966.00
910.52	14805.00
910.95	14830.00
911.38	14874.00
911.82	14305.00
912.25	14698.00
912.68	14896.00
913.12	14810.00
913.55	14916.00
913.98	15302.00
914.42	15936.00
914.85	15894.00
915.28	15432.00
915.72	15510.00
916.15	15129.00
916.58	15336.00
917.01	14648.00
917.45	14362.00
917.88	14828.00
918.31	14878.00
918.74	15378.00
919.18	15542.00
919.61	15602.00
920.04	15878.00
920.47	15978.00
920.91	16134.00
921.34	15994.00
921.77	16116.00
922.20	16260.00
922.64	16264.00
923.07	16290.00
923.50	16038.00
923.93	15928.00
924.37	15718.00
924.80	15466.00
925.23	15468.00
925.66	14730.00
926.09	14180.00
926.53	13882.00
926.96	13512.00
927.39	12924.00
927.82	12340.00
928.25	11931.00
928.69	11822.00
929.12	11460.00
929.55	11020.00
929.98	10712.00
930.41	10204.00
930.84	9742.00
931.28	9166.00
931.71	8610.00
932.14	7935.00
932.57	7886.00
933.00	7623.00
933.43	7276.00
933.86	6898.00
934.30	6776.00
934.73	7357.00
935.16	6988.00
935.59	6766.00
936.02	7000.00
936.45	6928.00
936.88	6952.00
937.31	7449.00
937.75	7522.00
938.18	7972.00
938.61	8270.00
939.04	8532.00
939.47	8354.00
939.90	8058.00
940.33	7758.00
940.76	7294.00
941.19	7172.00
941.62	7050.00
942.05	6797.00
942.48	6402.00
942.91	6510.00
943.35	6694.00
943.78	6329.00
944.21	6384.00
944.64	6810.00
945.07	6835.00
945.50	6758.00
945.93	6842.00
946.36	7046.00
946.79	7282.00
947.22	7584.00
947.65	7344.00
948.08	7097.00
948.51	7536.00
948.94	7650.00
949.37	7464.00
949.80	7202.00
950.23	7309.00
950.66	7561.00
951.09	7476.00
951.52	7202.00
951.95	7272.00
952.38	7420.00
952.81	7818.00
953.24	8084.00
953.67	8086.00
954.10	8060.00
954.53	8464.00
954.96	8308.00
955.39	8626.00
955.82	8960.00
956.25	8686.00
956.68	9014.00
957.11	8984.00
957.53	8681.00
957.96	8657.00
958.39	8584.00
958.82	8230.00
959.25	8579.00
959.68	8808.00
960.11	8841.00
960.54	9034.00
960.97	9404.00
961.40	9670.00
961.83	9518.00
962.26	9706.00
962.68	10280.00
963.11	10324.00
963.54	10411.00
963.97	10498.00
964.40	10550.00
964.83	10832.00
965.26	10932.00
965.69	10721.00
966.11	10633.00
966.54	10808.00
966.97	11182.00
967.40	11226.00
967.83	11304.00
968.26	11232.00
968.69	11256.00
969.11	11380.00
969.54	11098.00
969.97	11368.00
970.40	11510.00
970.83	11492.00
971.26	11618.00
971.68	11500.00
972.11	11682.00
972.54	11927.00
972.97	11739.00
973.40	11632.00
973.82	11730.00
974.25	11661.00
974.68	11552.00
975.11	11330.00
975.54	11118.00
975.96	11050.00
976.39	11065.00
976.82	11182.00
977.25	10922.00
977.67	10910.00
978.10	11041.00
978.53	11136.00
978.96	11404.00
979.38	11552.00
979.81	11679.00
980.24	11970.00
980.67	12211.00
981.09	12238.00
981.52	12460.00
981.95	12446.00
982.38	12501.00
982.80	12582.00
983.23	12774.00
983.66	12808.00
984.08	12679.00
984.51	12512.00
984.94	12534.00
985.37	12463.00
985.79	12142.00
986.22	11852.00
986.65	11816.00
987.07	11664.00
987.50	11724.00
987.93	11642.00
988.35	11839.00
988.78	11758.00
989.21	11828.00
989.63	12036.00
990.06	12206.00
990.49	12320.00
990.91	12554.00
991.34	12572.00
991.77	12720.00
992.19	12660.00
992.62	12493.00
993.05	12512.00
993.47	12433.00
993.90	12332.00
994.32	12267.00
994.75	11986.00
995.18	11692.00
995.60	11624.00
996.03	11502.00
996.45	11469.00
996.88	11340.00
997.31	11222.00
997.73	11310.00
998.16	11264.00
998.58	11412.00
999.01	11494.00
999.44	11568.00
999.86	11736.00
1000.29	11746.00
1000.71	11862.00
1001.14	11952.00
1001.56	11834.00
1001.99	11759.00
1002.41	11624.00
1002.84	11578.00
1003.27	11356.00
1003.69	11150.00
1004.12	11006.00
1004.54	10794.00
1004.97	10672.00
1005.39	10464.00
1005.82	10392.00
1006.24	10384.00
1006.67	10276.00
1007.09	10344.00
1007.52	10358.00
1007.94	10403.00
1008.37	10510.00
1008.79	10413.00
1009.22	10495.00
1009.64	10522.00
1010.07	10530.00
1010.49	10586.00
1010.92	10521.00
1011.34	10676.00
1011.77	10542.00
1012.19	10580.00
1012.62	10532.00
1013.04	10338.00
1013.46	10338.00
1013.89	9986.00
1014.31	9958.00
1014.74	9788.00
1015.16	9714.00
1015.59	9613.00
1016.01	9668.00
1016.44	9558.00
1016.86	10856.00
1017.28	9680.00
1017.71	9690.00
1018.13	9935.00
1018.56	9955.00
1018.98	9966.00
1019.40	9982.00
1019.83	10052.00
1020.25	10096.00
1020.68	10086.00
1021.10	10252.00
1021.52	10276.00
1021.95	10498.00
1022.37	10382.00
1022.79	10264.00
1023.22	10231.00
1023.64	10128.00
1024.07	10104.00
1024.49	10020.00
1024.91	9762.00
1025.34	9730.00
1025.76	9796.00
1026.18	9636.00
1026.61	9540.00
1027.03	9522.00
1027.45	9598.00
1027.88	9519.00
1028.30	9726.00
1028.72	9603.00
1029.15	9682.00
1029.57	9722.00
1029.99	9816.00
1030.41	9738.00
1030.84	9732.00
1031.26	9708.00
1031.68	9659.00
1032.11	9572.00
1032.53	9430.00
1032.95	9420.00
1033.37	9273.00
1033.80	9222.00
1034.22	9070.00
1034.64	9084.00
1035.06	8826.00
1035.49	8687.00
1035.91	8612.00
1036.33	8558.00
1036.75	8554.00
1037.18	8542.00
1037.60	8559.00
1038.02	8546.00
1038.44	8604.00
1038.87	8463.00
1039.29	8484.00
1039.71	8516.00
1040.13	8570.00
1040.55	8608.00
1040.98	8579.00
1041.40	8602.00
1041.82	8550.00
1042.24	8376.00
1042.66	8366.00
1043.09	8244.00
1043.51	8184.00
1043.93	8004.00
1044.35	7965.00
1044.77	7825.00
1045.20	7854.00
1045.62	7675.00
1046.04	7713.00
1046.46	7656.00
1046.88	7460.00
1047.30	7598.00
1047.72	7440.00
1048.15	7438.00
1048.57	7352.00
1048.99	7375.00
1049.41	7338.00
1049.83	7344.00
1050.25	7408.00
1050.67	7357.00
1051.09	7314.00
1051.52	7364.00
1051.94	7212.00
1052.36	7236.00
1052.78	7130.00
1053.20	7142.00
1053.62	7138.00
1054.04	7124.00
1054.46	7093.00
1054.88	7210.00
1055.30	6922.00
1055.72	6866.00
1056.14	6850.00
1056.57	6928.00
1056.99	6673.00
1057.41	6592.00
1057.83	6624.00
1058.25	6476.00
1058.67	6474.00
1059.09	6478.00
1059.51	6433.00
1059.93	6292.00
1060.35	6256.00
1060.77	6298.00
1061.19	6364.00
1061.61	6152.00
1062.03	6216.00
1062.45	6112.00
1062.87	6266.00
1063.29	6238.00
1063.71	6077.00
1064.13	6122.00
1064.55	6004.00
1064.97	6132.00
1065.39	6045.00
1065.81	6002.00
1066.23	6014.00
1066.65	5970.00
1067.07	6033.00
1067.49	5900.00
1067.91	5742.00
1068.33	5770.00
1068.75	5788.00
1069.17	5807.00
1069.59	5686.00
1070.00	5624.00
1070.42	5660.00
1070.84	5604.00
1071.26	5537.00
1071.68	5462.00
1072.10	5582.00
1072.52	5517.00
1072.94	5444.00
1073.36	5460.00
1073.78	5496.00
1074.20	5430.00
1074.62	5411.00
1075.03	5436.00
1075.45	5472.00
1075.87	5518.00
1076.29	5352.00
1076.71	5407.00
1077.13	5458.00
1077.55	5290.00
1077.97	5332.00
1078.38	5256.00
1078.80	5270.00
1079.22	5224.00
1079.64	5132.00
1080.06	5202.00
1080.48	5110.00
1080.89	5054.00
1081.31	5046.00
1081.73	5031.00
1082.15	5046.00
1082.57	5047.00
1082.99	5006.00
1083.40	4904.00
1083.82	5050.00
1084.24	4928.00
1084.66	4944.00
1085.08	4925.00
1085.49	4812.00
1085.91	4916.00
1086.33	6386.00
1086.75	4850.00
1087.17	4850.00
1087.58	4838.00
1088.00	4886.00
1088.42	4932.00
1088.84	4812.00
1089.25	4740.00
1089.67	4784.00
1090.09	4720.00
1090.51	4646.00
1090.92	4698.00
1091.34	4648.00
1091.76	4636.00
1092.18	4519.00
1092.59	4526.00
1093.01	4547.00
1093.43	4526.00
1093.84	4476.00
1094.26	4498.00
1094.68	4495.00
1095.10	4428.00
1095.51	4430.00
1095.93	4390.00
1096.35	4392.00
1096.76	4414.00
1097.18	4438.00
1097.60	4362.00
1098.01	4318.00
1098.43	4314.00
1098.85	4306.00
1099.26	4260.00
1099.68	4257.00
1100.10	4265.00
1100.51	4202.00
1100.93	4194.00
1101.35	4194.00
1101.76	4192.00
1102.18	4708.00
1102.60	4228.00
1103.01	4027.00
1103.43	4142.00
1103.84	4104.00
1104.26	4090.00
1104.68	4074.00
1105.09	4031.00
1105.51	4021.00
1105.92	4102.00
1106.34	3952.00
1106.76	4042.00
1107.17	3962.00
1107.59	3990.00
1108.00	3880.00
1108.42	3914.00
1108.83	3901.00
1109.25	3841.00
1109.67	3802.00
1110.08	3800.00
1110.50	3774.00
1110.91	3826.00
1111.33	3732.00
1111.74	3770.00
1112.16	3773.00
1112.57	3836.00
1112.99	3708.00
1113.41	3734.00
1113.82	3670.00
1114.24	3668.00
1114.65	3615.00
1115.07	3489.00
1115.48	3392.00
1115.90	2194.00
1116.31	2222.00
1116.73	2218.00
1117.14	2221.00
>>>>>End Processed Spectral Data<<<<<
