SpectraSuite Data File
++++++++++++++++++++++++++++++++++++
Date: Tue May 29 13:11:04 EEST 2018
User: CanSEE
Dark Spectrum Present: No
Reference Spectrum Present: No
Number of Sampled Component Spectra: 1
Spectrometers: MAYP11278
Integration Time (usec): 230000 (MAYP11278)
Spectra Averaged: 1 (MAYP11278)
Boxcar Smoothing: 0 (MAYP11278)
Correct for Electrical Dark: No (MAYP11278)
Strobe/Lamp Enabled: No (MAYP11278)
Correct for Detector Non-linearity: No (MAYP11278)
Correct for Stray Light: No (MAYP11278)
Number of Pixels in Processed Spectrum: 2068
>>>>>Begin Processed Spectral Data<<<<<
187.82	2339.00
188.30	2236.00
188.78	2216.00
189.26	2207.00
189.73	3201.00
190.21	3330.00
190.69	3427.00
191.17	3414.00
191.64	3449.00
192.12	3455.00
192.60	3405.00
193.07	3365.00
193.55	3429.00
194.03	3398.00
194.51	3412.00
194.98	3396.00
195.46	3457.00
195.94	3399.00
196.42	3399.00
196.89	3557.00
197.37	3424.00
197.85	3353.00
198.32	3417.00
198.80	3403.00
199.28	3444.00
199.76	3448.00
200.23	3423.00
200.71	3434.00
201.19	3441.00
201.66	3445.00
202.14	3445.00
202.62	3395.00
203.09	3459.00
203.57	3371.00
204.05	3482.00
204.53	3503.00
205.00	3403.00
205.48	3420.00
205.96	3517.00
206.43	3423.00
206.91	3468.00
207.39	3560.00
207.86	3449.00
208.34	3481.00
208.82	3427.00
209.29	3459.00
209.77	3484.00
210.25	3432.00
210.72	3445.00
211.20	3486.00
211.68	3444.00
212.15	3432.00
212.63	3516.00
213.11	3448.00
213.58	3423.00
214.06	3541.00
214.53	3474.00
215.01	3472.00
215.49	3455.00
215.96	3453.00
216.44	3476.00
216.92	3484.00
217.39	3421.00
217.87	3447.00
218.35	3483.00
218.82	3423.00
219.30	3412.00
219.77	3424.00
220.25	3437.00
220.73	3525.00
221.20	3423.00
221.68	3487.00
222.15	3444.00
222.63	3471.00
223.11	3439.00
223.58	3501.00
224.06	3459.00
224.53	3454.00
225.01	3420.00
225.49	3431.00
225.96	3428.00
226.44	3443.00
226.91	3497.00
227.39	3419.00
227.87	3488.00
228.34	3500.00
228.82	3461.00
229.29	3425.00
229.77	3463.00
230.24	3407.00
230.72	3490.00
231.20	3510.00
231.67	3455.00
232.15	3445.00
232.62	3413.00
233.10	3464.00
233.57	3451.00
234.05	3587.00
234.53	3469.00
235.00	3443.00
235.48	3419.00
235.95	3503.00
236.43	3475.00
236.90	3562.00
237.38	3472.00
237.85	3469.00
238.33	3457.00
238.80	3519.00
239.28	3442.00
239.75	3432.00
240.23	3482.00
240.71	3545.00
241.18	3451.00
241.66	3449.00
242.13	3466.00
242.61	3502.00
243.08	3433.00
243.56	3428.00
244.03	3493.00
244.51	3498.00
244.98	3441.00
245.46	3519.00
245.93	5267.00
246.41	3375.00
246.88	3434.00
247.36	3449.00
247.83	3464.00
248.31	3454.00
248.78	3375.00
249.26	3458.00
249.73	3506.00
250.21	3459.00
250.68	3540.00
251.16	3470.00
251.63	3568.00
252.10	3526.00
252.58	3437.00
253.05	3482.00
253.53	3487.00
254.00	3404.00
254.48	3509.00
254.95	3479.00
255.43	3487.00
255.90	3423.00
256.38	3510.00
256.85	3486.00
257.33	3525.00
257.80	3572.00
258.27	3496.00
258.75	3425.00
259.22	3481.00
259.70	3451.00
260.17	3555.00
260.65	3436.00
261.12	3466.00
261.59	3530.00
262.07	3478.00
262.54	3471.00
263.02	3503.00
263.49	3440.00
263.97	3496.00
264.44	3522.00
264.91	3465.00
265.39	3517.00
265.86	3514.00
266.34	3495.00
266.81	3421.00
267.28	3443.00
267.76	3488.00
268.23	3447.00
268.71	3352.00
269.18	3402.00
269.65	3410.00
270.13	3499.00
270.60	3527.00
271.08	3455.00
271.55	3484.00
272.02	3417.00
272.50	3462.00
272.97	3388.00
273.44	3455.00
273.92	3609.00
274.39	3451.00
274.87	3493.00
275.34	3431.00
275.81	3448.00
276.29	3490.00
276.76	3461.00
277.23	3361.00
277.71	3384.00
278.18	3384.00
278.65	3543.00
279.13	3385.00
279.60	3417.00
280.07	3707.00
280.55	3672.00
281.02	3744.00
281.50	3555.00
281.97	3648.00
282.44	3485.00
282.91	3476.00
283.39	3525.00
283.86	3501.00
284.33	3482.00
284.81	3526.00
285.28	3482.00
285.75	3517.00
286.23	3520.00
286.70	3435.00
287.17	3544.00
287.65	3573.00
288.12	3480.00
288.59	3521.00
289.07	3423.00
289.54	3531.00
290.01	3488.00
290.48	3497.00
290.96	3475.00
291.43	3509.00
291.90	3564.00
292.38	3457.00
292.85	3544.00
293.32	3487.00
293.79	3542.00
294.27	3516.00
294.74	3469.00
295.21	3498.00
295.69	3527.00
296.16	3557.00
296.63	3571.00
297.10	3518.00
297.58	3518.00
298.05	3496.00
298.52	3470.00
298.99	3551.00
299.47	3468.00
299.94	3477.00
300.41	3457.00
300.88	3503.00
301.36	3550.00
301.83	3560.00
302.30	3421.00
302.77	3508.00
303.25	3531.00
303.72	3442.00
304.19	3454.00
304.66	3476.00
305.13	3488.00
305.61	3498.00
306.08	3508.00
306.55	3504.00
307.02	3487.00
307.49	3495.00
307.97	3488.00
308.44	3511.00
308.91	3544.00
309.38	3551.00
309.86	3523.00
310.33	3488.00
310.80	3525.00
311.27	3465.00
311.74	3572.00
312.21	3476.00
312.69	3568.00
313.16	3497.00
313.63	3538.00
314.10	3500.00
314.57	3497.00
315.05	3495.00
315.52	3527.00
315.99	3557.00
316.46	3578.00
316.93	3555.00
317.40	3527.00
317.88	3606.00
318.35	3487.00
318.82	3526.00
319.29	3471.00
319.76	3538.00
320.23	3599.00
320.70	3556.00
321.18	3505.00
321.65	3437.00
322.12	3462.00
322.59	3623.00
323.06	3486.00
323.53	3659.00
324.00	3469.00
324.48	3549.00
324.95	3523.00
325.42	3480.00
325.89	3505.00
326.36	3539.00
326.83	3529.00
327.30	3567.00
327.77	3532.00
328.24	3539.00
328.72	3499.00
329.19	3521.00
329.66	3505.00
330.13	3491.00
330.60	3573.00
331.07	3583.00
331.54	3629.00
332.01	3513.00
332.48	3605.00
332.95	3520.00
333.43	3578.00
333.90	3587.00
334.37	3557.00
334.84	3570.00
335.31	3710.00
335.78	3461.00
336.25	3506.00
336.72	3517.00
337.19	3566.00
337.66	3488.00
338.13	3507.00
338.60	3619.00
339.07	3557.00
339.54	3495.00
340.01	3500.00
340.49	3463.00
340.96	3566.00
341.43	3626.00
341.90	3496.00
342.37	3522.00
342.84	3541.00
343.31	3513.00
343.78	3496.00
344.25	3513.00
344.72	3489.00
345.19	3512.00
345.66	3545.00
346.13	3502.00
346.60	3521.00
347.07	3601.00
347.54	3504.00
348.01	3577.00
348.48	3541.00
348.95	3441.00
349.42	3525.00
349.89	3551.00
350.36	3551.00
350.83	3464.00
351.30	3586.00
351.77	3622.00
352.24	3526.00
352.71	3533.00
353.18	3507.00
353.65	3561.00
354.12	3545.00
354.59	3589.00
355.06	3518.00
355.53	3579.00
356.00	3523.00
356.47	3651.00
356.94	3531.00
357.41	3701.00
357.88	3576.00
358.35	3473.00
358.82	3507.00
359.28	3523.00
359.75	3504.00
360.22	3555.00
360.69	3635.00
361.16	3546.00
361.63	3527.00
362.10	3554.00
362.57	3495.00
363.04	3512.00
363.51	3605.00
363.98	3591.00
364.45	3511.00
364.92	3537.00
365.39	3483.00
365.86	3453.00
366.32	3534.00
366.79	3555.00
367.26	4433.00
367.73	3918.00
368.20	3498.00
368.67	3570.00
369.14	3535.00
369.61	3555.00
370.08	3564.00
370.55	3499.00
371.02	4382.00
371.48	3564.00
371.95	3524.00
372.42	3462.00
372.89	3566.00
373.36	3551.00
373.83	3451.00
374.30	3479.00
374.77	3540.00
375.23	3482.00
375.70	3631.00
376.17	3536.00
376.64	3508.00
377.11	3513.00
377.58	3531.00
378.05	3539.00
378.51	3530.00
378.98	3531.00
379.45	3545.00
379.92	3577.00
380.39	3654.00
380.86	3551.00
381.33	3570.00
381.79	3573.00
382.26	3479.00
382.73	3557.00
383.20	3546.00
383.67	3619.00
384.14	3567.00
384.60	3768.00
385.07	3516.00
385.54	3535.00
386.01	3521.00
386.48	3647.00
386.94	3481.00
387.41	3477.00
387.88	3573.00
388.35	3510.00
388.82	3562.00
389.28	3497.00
389.75	3555.00
390.22	3591.00
390.69	3533.00
391.16	3491.00
391.62	3497.00
392.09	3519.00
392.56	3506.00
393.03	3546.00
393.50	3648.00
393.96	3541.00
394.43	3585.00
394.90	3513.00
395.37	3551.00
395.83	3750.00
396.30	3471.00
396.77	3550.00
397.24	3593.00
397.70	3476.00
398.17	3527.00
398.64	3508.00
399.11	3540.00
399.57	3572.00
400.04	3498.00
400.51	3543.00
400.98	3538.00
401.44	3563.00
401.91	3555.00
402.38	3571.00
402.84	3495.00
403.31	3614.00
403.78	3572.00
404.25	3651.00
404.71	3626.00
405.18	3623.00
405.65	3503.00
406.12	3586.00
406.58	3574.00
407.05	3665.00
407.52	3573.00
407.98	4085.00
408.45	3554.00
408.92	3494.00
409.38	3598.00
409.85	3520.00
410.32	3620.00
410.78	3525.00
411.25	3629.00
411.72	3592.00
412.18	3499.00
412.65	3620.00
413.12	3564.00
413.59	3588.00
414.05	3604.00
414.52	3643.00
414.98	3561.00
415.45	3640.00
415.92	3612.00
416.38	3597.00
416.85	3659.00
417.32	3583.00
417.78	3554.00
418.25	3603.00
418.72	3571.00
419.18	3659.00
419.65	3560.00
420.12	3595.00
420.58	3568.00
421.05	3594.00
421.51	3607.00
421.98	3646.00
422.45	3540.00
422.91	3595.00
423.38	3661.00
423.85	3653.00
424.31	3592.00
424.78	3656.00
425.24	3627.00
425.71	3709.00
426.18	3603.00
426.64	3714.00
427.11	3672.00
427.57	3681.00
428.04	3604.00
428.51	3691.00
428.97	3626.00
429.44	3651.00
429.90	3653.00
430.37	3743.00
430.83	3612.00
431.30	3675.00
431.77	3760.00
432.23	3726.00
432.70	3656.00
433.16	3651.00
433.63	3673.00
434.09	3669.00
434.56	3714.00
435.03	3618.00
435.49	3703.00
435.96	3722.00
436.42	3685.00
436.89	3740.00
437.35	3701.00
437.82	3702.00
438.28	3655.00
438.75	3697.00
439.21	3865.00
439.68	3699.00
440.14	3724.00
440.61	3751.00
441.07	3673.00
441.54	3717.00
442.00	3861.00
442.47	3623.00
442.94	3712.00
443.40	3732.00
443.87	3679.00
444.33	3794.00
444.80	3738.00
445.26	3771.00
445.73	3732.00
446.19	3772.00
446.65	3761.00
447.12	3797.00
447.58	3725.00
448.05	3686.00
448.51	3806.00
448.98	3794.00
449.44	3787.00
449.91	3707.00
450.37	3735.00
450.84	3754.00
451.30	3777.00
451.77	3823.00
452.23	3746.00
452.70	3768.00
453.16	3767.00
453.62	3778.00
454.09	3766.00
454.55	3844.00
455.02	3746.00
455.48	3788.00
455.95	3813.00
456.41	3756.00
456.88	3775.00
457.34	3766.00
457.80	3727.00
458.27	3691.00
458.73	3792.00
459.20	3775.00
459.66	3803.00
460.13	3745.00
460.59	3734.00
461.05	3803.00
461.52	3759.00
461.98	3727.00
462.45	3693.00
462.91	3755.00
463.37	3698.00
463.84	3722.00
464.30	3714.00
464.76	3632.00
465.23	3701.00
465.69	3779.00
466.16	3707.00
466.62	3738.00
467.08	3701.00
467.55	3728.00
468.01	3687.00
468.48	3716.00
468.94	3703.00
469.40	3643.00
469.87	3685.00
470.33	3703.00
470.79	3708.00
471.26	3657.00
471.72	3641.00
472.18	3638.00
472.65	3673.00
473.11	3714.00
473.57	3708.00
474.04	3631.00
474.50	3671.00
474.96	3615.00
475.43	3637.00
475.89	3675.00
476.35	3675.00
476.82	3665.00
477.28	3665.00
477.74	3724.00
478.21	3657.00
478.67	3709.00
479.13	3595.00
479.59	3734.00
480.06	3689.00
480.52	3708.00
480.98	3637.00
481.45	3701.00
481.91	3691.00
482.37	3620.00
482.84	3690.00
483.30	3599.00
483.76	3671.00
484.22	3693.00
484.69	3686.00
485.15	3595.00
485.61	3577.00
486.07	3586.00
486.54	3532.00
487.00	3672.00
487.46	3542.00
487.92	3595.00
488.39	3596.00
488.85	3621.00
489.31	3662.00
489.77	3693.00
490.24	3644.00
490.70	3637.00
491.16	3580.00
491.62	3609.00
492.09	3567.00
492.55	3717.00
493.01	3689.00
493.47	3704.00
493.94	3659.00
494.40	3697.00
494.86	3658.00
495.32	3646.00
495.78	3707.00
496.25	3703.00
496.71	3682.00
497.17	3786.00
497.63	3748.00
498.09	3641.00
498.56	3712.00
499.02	3649.00
499.48	3828.00
499.94	3719.00
500.40	3689.00
500.87	3776.00
501.33	3687.00
501.79	3734.00
502.25	3778.00
502.71	4011.00
503.17	3743.00
503.64	3795.00
504.10	3810.00
504.56	3802.00
505.02	3835.00
505.48	3812.00
505.94	3855.00
506.40	3930.00
506.87	3843.00
507.33	3900.00
507.79	3878.00
508.25	3889.00
508.71	3865.00
509.17	3931.00
509.63	3981.00
510.10	3972.00
510.56	3993.00
511.02	4081.00
511.48	4062.00
511.94	4003.00
512.40	3982.00
512.86	4045.00
513.32	4105.00
513.78	4005.00
514.25	4179.00
514.71	4799.00
515.17	4138.00
515.63	4145.00
516.09	4207.00
516.55	4183.00
517.01	4272.00
517.47	4259.00
517.93	4252.00
518.39	4449.00
518.85	4313.00
519.32	4383.00
519.78	4462.00
520.24	4448.00
520.70	4596.00
521.16	4615.00
521.62	4699.00
522.08	4669.00
522.54	4669.00
523.00	4758.00
523.46	4826.00
523.92	4809.00
524.38	4985.00
524.84	4923.00
525.30	4969.00
525.76	4946.00
526.22	4837.00
526.68	4855.00
527.14	4949.00
527.60	4966.00
528.06	5117.00
528.52	5187.00
528.98	5210.00
529.44	5079.00
529.90	5215.00
530.36	5353.00
530.82	5270.00
531.28	5395.00
531.74	5288.00
532.20	5239.00
532.66	5229.00
533.12	5312.00
533.58	5303.00
534.04	5320.00
534.50	5421.00
534.96	5424.00
535.42	5486.00
535.88	5538.00
536.34	5479.00
536.80	5407.00
537.26	5545.00
537.72	5549.00
538.18	5563.00
538.64	5627.00
539.10	5564.00
539.56	5716.00
540.02	5449.00
540.48	5514.00
540.94	5509.00
541.40	5505.00
541.86	5605.00
542.32	5598.00
542.78	5515.00
543.24	5791.00
543.69	5611.00
544.15	5816.00
544.61	5659.00
545.07	5678.00
545.53	5666.00
545.99	5719.00
546.45	5775.00
546.91	5812.00
547.37	5752.00
547.83	5677.00
548.29	5701.00
548.74	5721.00
549.20	5776.00
549.66	5909.00
550.12	5778.00
550.58	5695.00
551.04	5805.00
551.50	5810.00
551.96	5914.00
552.42	5793.00
552.87	5726.00
553.33	5849.00
553.79	5825.00
554.25	5833.00
554.71	5897.00
555.17	5871.00
555.63	5887.00
556.08	5792.00
556.54	5827.00
557.00	5665.00
557.46	5737.00
557.92	5829.00
558.38	5613.00
558.83	5606.00
559.29	5600.00
559.75	5681.00
560.21	5679.00
560.67	5736.00
561.13	5721.00
561.58	5673.00
562.04	5552.00
562.50	5635.00
562.96	5614.00
563.42	5661.00
563.87	5533.00
564.33	5597.00
564.79	5497.00
565.25	5536.00
565.71	5425.00
566.16	5514.00
566.62	5503.00
567.08	5495.00
567.54	5503.00
568.00	5396.00
568.45	5274.00
568.91	5324.00
569.37	5365.00
569.83	5362.00
570.28	5230.00
570.74	5229.00
571.20	5256.00
571.66	5239.00
572.11	5285.00
572.57	5317.00
573.03	5180.00
573.49	5107.00
573.94	5211.00
574.40	5155.00
574.86	5100.00
575.32	5029.00
575.77	5042.00
576.23	4943.00
576.69	5099.00
577.15	4970.00
577.60	4971.00
578.06	4942.00
578.52	5001.00
578.97	4957.00
579.43	4913.00
579.89	4967.00
580.34	4963.00
580.80	4911.00
581.26	4928.00
581.72	4901.00
582.17	4938.00
582.63	4888.00
583.09	4885.00
583.54	4925.00
584.00	4839.00
584.46	4856.00
584.91	4816.00
585.37	4899.00
585.83	4797.00
586.28	4808.00
586.74	4811.00
587.20	4791.00
587.65	4839.00
588.11	4651.00
588.57	4661.00
589.02	4569.00
589.48	4594.00
589.94	4657.00
590.39	4693.00
590.85	4693.00
591.30	4669.00
591.76	4723.00
592.22	4592.00
592.67	4697.00
593.13	4651.00
593.59	4656.00
594.04	4647.00
594.50	4567.00
594.95	4659.00
595.41	4603.00
595.87	4595.00
596.32	4693.00
596.78	4699.00
597.23	4672.00
597.69	4626.00
598.15	4581.00
598.60	4621.00
599.06	4703.00
599.51	4566.00
599.97	4573.00
600.43	4602.00
600.88	4608.00
601.34	4592.00
601.79	4495.00
602.25	4693.00
602.70	4559.00
603.16	4598.00
603.61	4545.00
604.07	4507.00
604.53	4594.00
604.98	4522.00
605.44	4530.00
605.89	4491.00
606.35	4453.00
606.80	4566.00
607.26	4548.00
607.71	4492.00
608.17	4467.00
608.62	4495.00
609.08	4549.00
609.53	4474.00
609.99	4408.00
610.44	4423.00
610.90	4404.00
611.35	4365.00
611.81	4497.00
612.26	4435.00
612.72	4389.00
613.17	4545.00
613.63	4326.00
614.08	4264.00
614.54	4313.00
614.99	4267.00
615.45	4305.00
615.90	4277.00
616.36	4248.00
616.81	4227.00
617.27	4321.00
617.72	4333.00
618.18	4249.00
618.63	4235.00
619.09	4255.00
619.54	4308.00
619.99	4252.00
620.45	4274.00
620.90	4291.00
621.36	4222.00
621.81	4256.00
622.27	4304.00
622.72	4269.00
623.18	4201.00
623.63	4233.00
624.08	4259.00
624.54	4191.00
624.99	4135.00
625.45	4200.00
625.90	4159.00
626.35	4189.00
626.81	4246.00
627.26	4154.00
627.72	4151.00
628.17	4192.00
628.62	4139.00
629.08	4191.00
629.53	4150.00
629.99	4137.00
630.44	4224.00
630.89	4199.00
631.35	4185.00
631.80	4221.00
632.26	4197.00
632.71	4115.00
633.16	4187.00
633.62	4151.00
634.07	4106.00
634.52	4126.00
634.98	4167.00
635.43	4098.00
635.88	4082.00
636.34	4129.00
636.79	4117.00
637.24	4106.00
637.70	4144.00
638.15	4153.00
638.60	4092.00
639.06	4078.00
639.51	4080.00
639.96	3995.00
640.42	4117.00
640.87	4083.00
641.32	3981.00
641.78	4005.00
642.23	4002.00
642.68	3955.00
643.14	3952.00
643.59	4034.00
644.04	3915.00
644.49	3949.00
644.95	3914.00
645.40	3911.00
645.85	3920.00
646.31	3923.00
646.76	3927.00
647.21	3927.00
647.66	3893.00
648.12	3887.00
648.57	3851.00
649.02	3936.00
649.47	3825.00
649.93	4017.00
650.38	3831.00
650.83	3793.00
651.28	3834.00
651.74	3811.00
652.19	3774.00
652.64	3823.00
653.09	3843.00
653.55	3825.00
654.00	3793.00
654.45	3822.00
654.90	3732.00
655.35	3717.00
655.81	3780.00
656.26	3640.00
656.71	3688.00
657.16	3793.00
657.62	3783.00
658.07	3752.00
658.52	3758.00
658.97	3713.00
659.42	3905.00
659.88	3718.00
660.33	3813.00
660.78	3731.00
661.23	3693.00
661.68	3687.00
662.13	3677.00
662.59	3605.00
663.04	3680.00
663.49	3587.00
663.94	3651.00
664.39	3621.00
664.84	3608.00
665.30	3639.00
665.75	3607.00
666.20	3610.00
666.65	3626.00
667.10	3688.00
667.55	3665.00
668.00	3559.00
668.46	3611.00
668.91	3601.00
669.36	3686.00
669.81	3515.00
670.26	3538.00
670.71	3626.00
671.16	3573.00
671.61	3664.00
672.06	3669.00
672.52	3572.00
672.97	3573.00
673.42	3608.00
673.87	3737.00
674.32	3532.00
674.77	3563.00
675.22	3474.00
675.67	3523.00
676.12	3579.00
676.57	3580.00
677.02	3557.00
677.47	3525.00
677.93	3673.00
678.38	3481.00
678.83	3581.00
679.28	3586.00
679.73	3512.00
680.18	3577.00
680.63	3562.00
681.08	3515.00
681.53	3471.00
681.98	3558.00
682.43	3564.00
682.88	3644.00
683.33	3629.00
683.78	3591.00
684.23	3688.00
684.68	3587.00
685.13	3643.00
685.58	3641.00
686.03	3611.00
686.48	3566.00
686.93	3541.00
687.38	3526.00
687.83	3606.00
688.28	3646.00
688.73	3833.00
689.18	3734.00
689.63	3698.00
690.08	3791.00
690.53	3742.00
690.98	3787.00
691.43	3888.00
691.88	3884.00
692.33	3953.00
692.78	3983.00
693.23	4118.00
693.68	4157.00
694.13	4179.00
694.58	4217.00
695.03	4500.00
695.48	4336.00
695.93	4395.00
696.38	4577.00
696.83	4594.00
697.28	4583.00
697.72	4733.00
698.17	4741.00
698.62	4826.00
699.07	4858.00
699.52	4849.00
699.97	4957.00
700.42	5071.00
700.87	5148.00
701.32	5338.00
701.77	5191.00
702.22	5321.00
702.67	5360.00
703.11	5475.00
703.56	5540.00
704.01	5610.00
704.46	5751.00
704.91	5861.00
705.36	5892.00
705.81	5935.00
706.26	5888.00
706.70	6054.00
707.15	6037.00
707.60	6213.00
708.05	6318.00
708.50	6323.00
708.95	6410.00
709.40	6422.00
709.84	6498.00
710.29	6583.00
710.74	6598.00
711.19	6694.00
711.64	6740.00
712.09	6812.00
712.53	6841.00
712.98	6942.00
713.43	6923.00
713.88	6945.00
714.33	7112.00
714.78	7044.00
715.22	6982.00
715.67	7161.00
716.12	6977.00
716.57	6787.00
717.02	6688.00
717.46	6580.00
717.91	6665.00
718.36	6609.00
718.81	6528.00
719.26	6461.00
719.70	6624.00
720.15	6615.00
720.60	6855.00
721.05	7229.00
721.49	7458.00
721.94	7585.00
722.39	7499.00
722.84	7436.00
723.28	7159.00
723.73	7231.00
724.18	7218.00
724.63	7329.00
725.07	7298.00
725.52	7473.00
725.97	7535.00
726.42	7590.00
726.86	7824.00
727.31	7607.00
727.76	7686.00
728.21	7839.00
728.65	7774.00
729.10	7790.00
729.55	7918.00
729.99	8073.00
730.44	8005.00
730.89	8138.00
731.33	8293.00
731.78	8450.00
732.23	8567.00
732.68	8698.00
733.12	8813.00
733.57	8957.00
734.02	9041.00
734.46	9198.00
734.91	9222.00
735.36	9225.00
735.80	9320.00
736.25	9173.00
736.70	9297.00
737.14	9406.00
737.59	9569.00
738.04	9383.00
738.48	9398.00
738.93	9402.00
739.37	9499.00
739.82	9752.00
740.27	9670.00
740.71	9736.00
741.16	9794.00
741.61	9821.00
742.05	9823.00
742.50	9841.00
742.94	9838.00
743.39	9988.00
743.84	10033.00
744.28	9955.00
744.73	10052.00
745.18	10085.00
745.62	10010.00
746.07	10273.00
746.51	9967.00
746.96	10187.00
747.40	10005.00
747.85	10177.00
748.30	10026.00
748.74	9989.00
749.19	10121.00
749.63	10234.00
750.08	10073.00
750.52	10120.00
750.97	10017.00
751.42	10114.00
751.86	10059.00
752.31	10056.00
752.75	10157.00
753.20	9981.00
753.64	10097.00
754.09	10055.00
754.53	10088.00
754.98	10043.00
755.42	10073.00
755.87	10041.00
756.31	10109.00
756.76	9880.00
757.20	10022.00
757.65	9897.00
758.09	9722.00
758.54	9529.00
758.98	8726.00
759.43	7349.00
759.87	5977.00
760.32	5156.00
760.76	5139.00
761.21	5751.00
761.65	6452.00
762.10	6613.00
762.54	6379.00
762.99	6202.00
763.43	6303.00
763.88	6534.00
764.32	6733.00
764.77	7242.00
765.21	7614.00
765.66	7904.00
766.10	8285.00
766.54	8646.00
766.99	8877.00
767.43	9053.00
767.88	9305.00
768.32	9511.00
768.77	9489.00
769.21	9805.00
769.66	9732.00
770.10	9840.00
770.54	9952.00
770.99	9794.00
771.43	9928.00
771.88	9880.00
772.32	9978.00
772.76	9863.00
773.21	9839.00
773.65	9927.00
774.10	9850.00
774.54	9815.00
774.98	9775.00
775.43	9919.00
775.87	9965.00
776.31	10026.00
776.76	9985.00
777.20	9940.00
777.65	9891.00
778.09	9892.00
778.53	9853.00
778.98	9755.00
779.42	9929.00
779.86	9853.00
780.31	9754.00
780.75	9874.00
781.19	9847.00
781.64	9792.00
782.08	9889.00
782.52	9811.00
782.97	9762.00
783.41	9795.00
783.85	9718.00
784.30	9606.00
784.74	9567.00
785.18	9528.00
785.63	9543.00
786.07	9618.00
786.51	9652.00
786.95	9686.00
787.40	9567.00
787.84	9530.00
788.28	9545.00
788.73	9521.00
789.17	9283.00
789.61	9228.00
790.05	9285.00
790.50	9144.00
790.94	9196.00
791.38	9225.00
791.82	9143.00
792.27	9286.00
792.71	9255.00
793.15	9434.00
793.59	9281.00
794.04	9270.00
794.48	9145.00
794.92	9149.00
795.36	9007.00
795.81	8997.00
796.25	8979.00
796.69	9007.00
797.13	9073.00
797.57	9138.00
798.02	9146.00
798.46	9273.00
798.90	9202.00
799.34	9097.00
799.79	9156.00
800.23	8901.00
800.67	8836.00
801.11	8925.00
801.55	8975.00
801.99	8784.00
802.44	8899.00
802.88	8943.00
803.32	9037.00
803.76	8944.00
804.20	8975.00
804.64	8896.00
805.09	9020.00
805.53	9041.00
805.97	8945.00
806.41	8878.00
806.85	8875.00
807.29	8723.00
807.74	8686.00
808.18	8628.00
808.62	8805.00
809.06	8643.00
809.50	8655.00
809.94	8645.00
810.38	8711.00
810.82	8683.00
811.27	8824.00
811.71	8491.00
812.15	8367.00
812.59	8289.00
813.03	8163.00
813.47	7891.00
813.91	7791.00
814.35	7681.00
814.79	7603.00
815.23	7531.00
815.67	7521.00
816.12	7562.00
816.56	7467.00
817.00	7525.00
817.44	7595.00
817.88	7570.00
818.32	7385.00
818.76	7541.00
819.20	7560.00
819.64	7628.00
820.08	7787.00
820.52	7844.00
820.96	7901.00
821.40	7756.00
821.84	7740.00
822.28	7279.00
822.72	7292.00
823.16	7202.00
823.60	7471.00
824.04	7878.00
824.48	7933.00
824.92	7900.00
825.36	8023.00
825.80	7813.00
826.24	7810.00
826.68	7666.00
827.12	7749.00
827.56	7689.00
828.00	7672.00
828.44	7672.00
828.88	7767.00
829.32	7854.00
829.76	7817.00
830.20	8003.00
830.64	7879.00
831.08	7917.00
831.52	7795.00
831.96	7706.00
832.40	7640.00
832.84	7664.00
833.28	7705.00
833.72	7923.00
834.16	7934.00
834.60	8109.00
835.04	8169.00
835.48	8186.00
835.91	8213.00
836.35	8185.00
836.79	8034.00
837.23	8081.00
837.67	7989.00
838.11	7997.00
838.55	8045.00
838.99	8018.00
839.43	8081.00
839.87	8212.00
840.30	8171.00
840.74	8411.00
841.18	8245.00
841.62	8318.00
842.06	8325.00
842.50	8301.00
842.94	8279.00
843.38	8094.00
843.81	8108.00
844.25	8016.00
844.69	7935.00
845.13	8028.00
845.57	7916.00
846.01	8021.00
846.45	8052.00
846.88	8090.00
847.32	8233.00
847.76	8210.00
848.20	8265.00
848.64	8099.00
849.08	8189.00
849.51	8170.00
849.95	8000.00
850.39	8004.00
850.83	8109.00
851.27	7860.00
851.70	7981.00
852.14	7961.00
852.58	7780.00
853.02	7668.00
853.46	7473.00
853.89	7411.00
854.33	7527.00
854.77	7593.00
855.21	8006.00
855.65	8169.00
856.08	8267.00
856.52	8290.00
856.96	8170.00
857.40	8141.00
857.83	7962.00
858.27	8003.00
858.71	7760.00
859.15	7813.00
859.58	7824.00
860.02	7952.00
860.46	7979.00
860.89	8171.00
861.33	8049.00
861.77	8172.00
862.21	8223.00
862.64	8287.00
863.08	8161.00
863.52	8271.00
863.95	8026.00
864.39	7911.00
864.83	7821.00
865.27	7519.00
865.70	7553.00
866.14	7396.00
866.58	7395.00
867.01	7646.00
867.45	7783.00
867.89	7895.00
868.32	8089.00
868.76	8114.00
869.20	8138.00
869.63	8248.00
870.07	8195.00
870.51	7903.00
870.94	7817.00
871.38	7704.00
871.82	7576.00
872.25	7568.00
872.69	7627.00
873.13	7631.00
873.56	7684.00
874.00	7824.00
874.43	7763.00
874.87	7822.00
875.31	7988.00
875.74	7955.00
876.18	7971.00
876.61	8023.00
877.05	7936.00
877.49	7853.00
877.92	7803.00
878.36	7715.00
878.79	7652.00
879.23	7568.00
879.67	7396.00
880.10	7477.00
880.54	7479.00
880.97	7493.00
881.41	7684.00
881.84	7779.00
882.28	7826.00
882.72	7956.00
883.15	8055.00
883.59	8055.00
884.02	7988.00
884.46	8007.00
884.89	7895.00
885.33	7783.00
885.76	7633.00
886.20	7497.00
886.63	7491.00
887.07	7426.00
887.50	7361.00
887.94	7415.00
888.37	7489.00
888.81	7658.00
889.24	7481.00
889.68	7649.00
890.11	7698.00
890.55	7765.00
890.98	7818.00
891.42	7727.00
891.85	7662.00
892.29	7678.00
892.72	7543.00
893.16	7339.00
893.59	7287.00
894.03	7079.00
894.46	6997.00
894.90	6841.00
895.33	6647.00
895.77	6652.00
896.20	6596.00
896.63	6596.00
897.07	6562.00
897.50	6533.00
897.94	6615.00
898.37	6807.00
898.81	6467.00
899.24	6487.00
899.68	6661.00
900.11	6679.00
900.54	6557.00
900.98	6505.00
901.41	6488.00
901.85	6560.00
902.28	6507.00
902.71	6559.00
903.15	6823.00
903.58	6838.00
904.02	6803.00
904.45	6808.00
904.88	6792.00
905.32	6715.00
905.75	6864.00
906.18	6616.00
906.62	6720.00
907.05	6534.00
907.48	6550.00
907.92	6595.00
908.35	6509.00
908.79	6456.00
909.22	6334.00
909.65	6350.00
910.09	6399.00
910.52	6464.00
910.95	6288.00
911.38	6287.00
911.82	6143.00
912.25	6287.00
912.68	6423.00
913.12	6345.00
913.55	6393.00
913.98	6427.00
914.42	6619.00
914.85	6635.00
915.28	6398.00
915.72	6461.00
916.15	6315.00
916.58	6479.00
917.01	6269.00
917.45	6219.00
917.88	6279.00
918.31	6329.00
918.74	6534.00
919.18	6510.00
919.61	6583.00
920.04	6650.00
920.47	6713.00
920.91	6703.00
921.34	6683.00
921.77	6590.00
922.20	6766.00
922.64	6781.00
923.07	6801.00
923.50	6693.00
923.93	6571.00
924.37	6588.00
924.80	6451.00
925.23	6466.00
925.66	6380.00
926.09	6188.00
926.53	6079.00
926.96	5934.00
927.39	5890.00
927.82	5617.00
928.25	5451.00
928.69	5509.00
929.12	5428.00
929.55	5277.00
929.98	5230.00
930.41	4987.00
930.84	4908.00
931.28	4745.00
931.71	4682.00
932.14	4451.00
932.57	4459.00
933.00	4255.00
933.43	4281.00
933.86	4153.00
934.30	4107.00
934.73	4210.00
935.16	4183.00
935.59	4053.00
936.02	4141.00
936.45	4117.00
936.88	4092.00
937.31	4292.00
937.75	4292.00
938.18	4418.00
938.61	4517.00
939.04	4532.00
939.47	4485.00
939.90	4468.00
940.33	4465.00
940.76	4219.00
941.19	4282.00
941.62	4148.00
942.05	4105.00
942.48	4017.00
942.91	3943.00
943.35	4079.00
943.78	4031.00
944.21	4000.00
944.64	4051.00
945.07	4104.00
945.50	4098.00
945.93	4131.00
946.36	4267.00
946.79	4179.00
947.22	4300.00
947.65	4283.00
948.08	4180.00
948.51	4269.00
948.94	4333.00
949.37	4388.00
949.80	4230.00
950.23	4242.00
950.66	4280.00
951.09	4310.00
951.52	4183.00
951.95	4271.00
952.38	4283.00
952.81	4464.00
953.24	4432.00
953.67	4471.00
954.10	4431.00
954.53	4560.00
954.96	4471.00
955.39	4614.00
955.82	4613.00
956.25	4635.00
956.68	4763.00
957.11	4649.00
957.53	4632.00
957.96	4615.00
958.39	4538.00
958.82	4497.00
959.25	4509.00
959.68	4599.00
960.11	4683.00
960.54	4693.00
960.97	4796.00
961.40	4920.00
961.83	4835.00
962.26	4850.00
962.68	5036.00
963.11	5103.00
963.54	5100.00
963.97	5139.00
964.40	5055.00
964.83	5176.00
965.26	5150.00
965.69	5194.00
966.11	5194.00
966.54	5088.00
966.97	5283.00
967.40	5341.00
967.83	5472.00
968.26	5353.00
968.69	5311.00
969.11	5317.00
969.54	5303.00
969.97	5393.00
970.40	5401.00
970.83	5422.00
971.26	5428.00
971.68	5363.00
972.11	5392.00
972.54	5520.00
972.97	5405.00
973.40	5387.00
973.82	5410.00
974.25	5404.00
974.68	5382.00
975.11	5305.00
975.54	5205.00
975.96	5245.00
976.39	5259.00
976.82	5334.00
977.25	5321.00
977.67	5235.00
978.10	5223.00
978.53	5308.00
978.96	5401.00
979.38	5494.00
979.81	5461.00
980.24	5559.00
980.67	5650.00
981.09	5652.00
981.52	5661.00
981.95	5626.00
982.38	5679.00
982.80	5646.00
983.23	5802.00
983.66	5735.00
984.08	5682.00
984.51	5644.00
984.94	5657.00
985.37	5689.00
985.79	5543.00
986.22	5495.00
986.65	5527.00
987.07	5416.00
987.50	5469.00
987.93	5418.00
988.35	5493.00
988.78	5431.00
989.21	5453.00
989.63	5547.00
990.06	5612.00
990.49	5595.00
990.91	5823.00
991.34	5689.00
991.77	5735.00
992.19	5717.00
992.62	5669.00
993.05	5671.00
993.47	5701.00
993.90	5766.00
994.32	5594.00
994.75	5531.00
995.18	5471.00
995.60	5407.00
996.03	5413.00
996.45	5428.00
996.88	5429.00
997.31	5323.00
997.73	5391.00
998.16	5347.00
998.58	5491.00
999.01	5421.00
999.44	5430.00
999.86	5583.00
1000.29	5483.00
1000.71	5569.00
1001.14	5593.00
1001.56	5531.00
1001.99	5523.00
1002.41	5452.00
1002.84	5410.00
1003.27	5333.00
1003.69	5333.00
1004.12	5276.00
1004.54	5261.00
1004.97	5195.00
1005.39	5101.00
1005.82	5233.00
1006.24	5147.00
1006.67	5117.00
1007.09	5061.00
1007.52	5095.00
1007.94	5107.00
1008.37	5316.00
1008.79	5165.00
1009.22	5195.00
1009.64	5150.00
1010.07	5216.00
1010.49	5231.00
1010.92	5205.00
1011.34	5257.00
1011.77	5166.00
1012.19	5148.00
1012.62	5193.00
1013.04	5046.00
1013.46	5173.00
1013.89	4975.00
1014.31	5024.00
1014.74	4958.00
1015.16	4939.00
1015.59	4874.00
1016.01	4946.00
1016.44	4863.00
1016.86	6132.00
1017.28	4920.00
1017.71	4961.00
1018.13	5155.00
1018.56	5046.00
1018.98	5025.00
1019.40	4997.00
1019.83	5062.00
1020.25	5085.00
1020.68	5060.00
1021.10	5090.00
1021.52	5134.00
1021.95	5339.00
1022.37	5183.00
1022.79	5125.00
1023.22	5093.00
1023.64	5050.00
1024.07	5056.00
1024.49	5068.00
1024.91	4967.00
1025.34	4941.00
1025.76	5050.00
1026.18	4900.00
1026.61	4952.00
1027.03	4859.00
1027.45	4912.00
1027.88	4868.00
1028.30	5016.00
1028.72	4969.00
1029.15	4916.00
1029.57	4991.00
1029.99	5034.00
1030.41	4909.00
1030.84	4891.00
1031.26	5003.00
1031.68	4925.00
1032.11	5004.00
1032.53	4857.00
1032.95	4851.00
1033.37	4868.00
1033.80	4812.00
1034.22	4762.00
1034.64	4839.00
1035.06	4697.00
1035.49	4603.00
1035.91	4656.00
1036.33	4585.00
1036.75	4647.00
1037.18	4681.00
1037.60	4599.00
1038.02	4662.00
1038.44	4691.00
1038.87	4585.00
1039.29	4633.00
1039.71	4644.00
1040.13	4595.00
1040.55	4679.00
1040.98	4709.00
1041.40	4627.00
1041.82	4622.00
1042.24	4607.00
1042.66	4580.00
1043.09	4499.00
1043.51	4485.00
1043.93	4472.00
1044.35	4412.00
1044.77	4437.00
1045.20	4451.00
1045.62	4390.00
1046.04	4453.00
1046.46	4386.00
1046.88	4306.00
1047.30	4412.00
1047.72	4358.00
1048.15	4333.00
1048.57	4294.00
1048.99	4322.00
1049.41	4343.00
1049.83	4358.00
1050.25	4382.00
1050.67	4327.00
1051.09	4296.00
1051.52	4288.00
1051.94	4191.00
1052.36	4282.00
1052.78	4185.00
1053.20	4250.00
1053.62	4195.00
1054.04	4210.00
1054.46	4219.00
1054.88	4319.00
1055.30	4216.00
1055.72	4259.00
1056.14	4182.00
1056.57	4312.00
1056.99	4105.00
1057.41	4135.00
1057.83	4145.00
1058.25	4086.00
1058.67	4041.00
1059.09	4030.00
1059.51	4089.00
1059.93	4004.00
1060.35	4032.00
1060.77	4057.00
1061.19	4065.00
1061.61	4055.00
1062.03	3991.00
1062.45	3979.00
1062.87	4020.00
1063.29	4037.00
1063.71	3996.00
1064.13	3921.00
1064.55	3912.00
1064.97	4016.00
1065.39	3950.00
1065.81	3967.00
1066.23	3927.00
1066.65	3881.00
1067.07	3999.00
1067.49	3927.00
1067.91	3862.00
1068.33	3803.00
1068.75	3934.00
1069.17	3897.00
1069.59	3877.00
1070.00	3841.00
1070.42	3861.00
1070.84	3790.00
1071.26	3777.00
1071.68	3736.00
1072.10	3858.00
1072.52	3813.00
1072.94	3774.00
1073.36	3777.00
1073.78	3771.00
1074.20	3794.00
1074.62	3776.00
1075.03	3722.00
1075.45	3779.00
1075.87	3811.00
1076.29	3758.00
1076.71	3814.00
1077.13	3836.00
1077.55	3683.00
1077.97	3773.00
1078.38	3762.00
1078.80	3701.00
1079.22	3747.00
1079.64	3695.00
1080.06	3689.00
1080.48	3712.00
1080.89	3680.00
1081.31	3675.00
1081.73	3679.00
1082.15	3650.00
1082.57	3700.00
1082.99	3624.00
1083.40	3657.00
1083.82	3708.00
1084.24	3579.00
1084.66	3610.00
1085.08	3637.00
1085.49	3547.00
1085.91	3653.00
1086.33	4908.00
1086.75	3656.00
1087.17	3572.00
1087.58	3563.00
1088.00	3609.00
1088.42	3653.00
1088.84	3592.00
1089.25	3577.00
1089.67	3595.00
1090.09	3544.00
1090.51	3573.00
1090.92	3616.00
1091.34	3537.00
1091.76	3550.00
1092.18	3500.00
1092.59	3516.00
1093.01	3497.00
1093.43	3527.00
1093.84	3495.00
1094.26	3527.00
1094.68	3486.00
1095.10	3453.00
1095.51	3494.00
1095.93	3469.00
1096.35	3525.00
1096.76	3500.00
1097.18	3521.00
1097.60	3477.00
1098.01	3465.00
1098.43	3464.00
1098.85	3477.00
1099.26	3443.00
1099.68	3461.00
1100.10	3423.00
1100.51	3408.00
1100.93	3443.00
1101.35	3413.00
1101.76	3453.00
1102.18	3918.00
1102.60	3493.00
1103.01	3339.00
1103.43	3423.00
1103.84	3351.00
1104.26	3349.00
1104.68	3391.00
1105.09	3328.00
1105.51	3323.00
1105.92	3453.00
1106.34	3321.00
1106.76	3399.00
1107.17	3388.00
1107.59	3389.00
1108.00	3306.00
1108.42	3329.00
1108.83	3307.00
1109.25	3299.00
1109.67	3288.00
1110.08	3312.00
1110.50	3245.00
1110.91	3277.00
1111.33	3238.00
1111.74	3260.00
1112.16	3328.00
1112.57	3307.00
1112.99	3276.00
1113.41	3286.00
1113.82	3275.00
1114.24	3266.00
1114.65	3263.00
1115.07	3213.00
1115.48	3094.00
1115.90	2187.00
1116.31	2210.00
1116.73	2212.00
1117.14	2207.00
>>>>>End Processed Spectral Data<<<<<
