SpectraSuite Data File
++++++++++++++++++++++++++++++++++++
Date: Tue May 29 13:19:48 EEST 2018
User: CanSEE
Dark Spectrum Present: No
Reference Spectrum Present: No
Number of Sampled Component Spectra: 1
Spectrometers: MAYP11278
Integration Time (usec): 220000 (MAYP11278)
Spectra Averaged: 1 (MAYP11278)
Boxcar Smoothing: 0 (MAYP11278)
Correct for Electrical Dark: No (MAYP11278)
Strobe/Lamp Enabled: No (MAYP11278)
Correct for Detector Non-linearity: No (MAYP11278)
Correct for Stray Light: No (MAYP11278)
Number of Pixels in Processed Spectrum: 2068
>>>>>Begin Processed Spectral Data<<<<<
187.82	2344.00
188.30	2233.00
188.78	2218.00
189.26	2219.00
189.73	3396.00
190.21	3596.00
190.69	3708.00
191.17	3694.00
191.64	3748.00
192.12	3686.00
192.60	3670.00
193.07	3646.00
193.55	3706.00
194.03	3642.00
194.51	3706.00
194.98	3686.00
195.46	3780.00
195.94	3684.00
196.42	3702.00
196.89	3834.00
197.37	3714.00
197.85	3648.00
198.32	3668.00
198.80	3670.00
199.28	3678.00
199.76	3762.00
200.23	3712.00
200.71	3690.00
201.19	3718.00
201.66	3736.00
202.14	3672.00
202.62	3656.00
203.09	3709.00
203.57	3680.00
204.05	3742.00
204.53	3765.00
205.00	3698.00
205.48	3678.00
205.96	3808.00
206.43	3686.00
206.91	3786.00
207.39	3794.00
207.86	3704.00
208.34	3738.00
208.82	3702.00
209.29	3791.00
209.77	3691.00
210.25	3740.00
210.72	3686.00
211.20	3760.00
211.68	3678.00
212.15	3696.00
212.63	3784.00
213.11	3759.00
213.58	3694.00
214.06	3782.00
214.53	3780.00
215.01	3780.00
215.49	3748.00
215.96	3748.00
216.44	3750.00
216.92	3722.00
217.39	3700.00
217.87	3718.00
218.35	3771.00
218.82	3674.00
219.30	3692.00
219.77	3690.00
220.25	3725.00
220.73	3820.00
221.20	3670.00
221.68	3728.00
222.15	3696.00
222.63	3761.00
223.11	3696.00
223.58	3764.00
224.06	3696.00
224.53	3711.00
225.01	3672.00
225.49	3708.00
225.96	3732.00
226.44	3700.00
226.91	3786.00
227.39	3700.00
227.87	3738.00
228.34	3766.00
228.82	3728.00
229.29	3745.00
229.77	3680.00
230.24	3704.00
230.72	3796.00
231.20	3810.00
231.67	3726.00
232.15	3708.00
232.62	3631.00
233.10	3696.00
233.57	3786.00
234.05	3940.00
234.53	3708.00
235.00	3690.00
235.48	3740.00
235.95	3700.00
236.43	3761.00
236.90	3848.00
237.38	3712.00
237.85	3756.00
238.33	3725.00
238.80	3711.00
239.28	3717.00
239.75	3678.00
240.23	3776.00
240.71	3784.00
241.18	3744.00
241.66	3740.00
242.13	3773.00
242.61	3784.00
243.08	3684.00
243.56	3682.00
244.03	3804.00
244.51	3784.00
244.98	3694.00
245.46	3811.00
245.93	5656.00
246.41	3640.00
246.88	3748.00
247.36	3726.00
247.83	3780.00
248.31	3741.00
248.78	3664.00
249.26	3797.00
249.73	3781.00
250.21	3773.00
250.68	3814.00
251.16	3789.00
251.63	3872.00
252.10	3836.00
252.58	3736.00
253.05	3793.00
253.53	3777.00
254.00	3728.00
254.48	3725.00
254.95	3756.00
255.43	3798.00
255.90	3704.00
256.38	3766.00
256.85	3750.00
257.33	3818.00
257.80	3859.00
258.27	3702.00
258.75	3734.00
259.22	3724.00
259.70	3748.00
260.17	3858.00
260.65	3758.00
261.12	3722.00
261.59	3827.00
262.07	3752.00
262.54	3813.00
263.02	3749.00
263.49	3695.00
263.97	3773.00
264.44	3802.00
264.91	3723.00
265.39	3768.00
265.86	3770.00
266.34	3806.00
266.81	3754.00
267.28	3788.00
267.76	3740.00
268.23	3764.00
268.71	3682.00
269.18	3654.00
269.65	3708.00
270.13	3769.00
270.60	3812.00
271.08	3726.00
271.55	3764.00
272.02	3716.00
272.50	3704.00
272.97	3666.00
273.44	3742.00
273.92	3916.00
274.39	3758.00
274.87	3765.00
275.34	3714.00
275.81	3698.00
276.29	3750.00
276.76	3742.00
277.23	3650.00
277.71	3664.00
278.18	3626.00
278.65	3822.00
279.13	3654.00
279.60	3700.00
280.07	4033.00
280.55	3956.00
281.02	4064.00
281.50	3793.00
281.97	3899.00
282.44	3806.00
282.91	3810.00
283.39	3835.00
283.86	3726.00
284.33	3748.00
284.81	3858.00
285.28	3747.00
285.75	3738.00
286.23	3796.00
286.70	3718.00
287.17	3818.00
287.65	3856.00
288.12	3754.00
288.59	3775.00
289.07	3706.00
289.54	3837.00
290.01	3718.00
290.48	3788.00
290.96	3756.00
291.43	3818.00
291.90	3872.00
292.38	3698.00
292.85	3828.00
293.32	3744.00
293.79	3803.00
294.27	3808.00
294.74	3749.00
295.21	3806.00
295.69	3785.00
296.16	3876.00
296.63	3838.00
297.10	3811.00
297.58	3768.00
298.05	3839.00
298.52	3794.00
298.99	3840.00
299.47	3741.00
299.94	3789.00
300.41	3704.00
300.88	3824.00
301.36	3801.00
301.83	3824.00
302.30	3758.00
302.77	3806.00
303.25	3887.00
303.72	3713.00
304.19	3745.00
304.66	3730.00
305.13	3765.00
305.61	3784.00
306.08	3776.00
306.55	3773.00
307.02	3805.00
307.49	3750.00
307.97	3753.00
308.44	3763.00
308.91	3798.00
309.38	3828.00
309.86	3812.00
310.33	3802.00
310.80	3803.00
311.27	3761.00
311.74	3868.00
312.21	3782.00
312.69	3892.00
313.16	3755.00
313.63	3756.00
314.10	3772.00
314.57	3712.00
315.05	3752.00
315.52	3818.00
315.99	3805.00
316.46	3805.00
316.93	3843.00
317.40	3792.00
317.88	3944.00
318.35	3812.00
318.82	3758.00
319.29	3713.00
319.76	3832.00
320.23	3845.00
320.70	3822.00
321.18	3814.00
321.65	3704.00
322.12	3732.00
322.59	3874.00
323.06	3758.00
323.53	3901.00
324.00	3737.00
324.48	3819.00
324.95	3782.00
325.42	3814.00
325.89	3766.00
326.36	3757.00
326.83	3807.00
327.30	3852.00
327.77	3828.00
328.24	3845.00
328.72	3775.00
329.19	3786.00
329.66	3799.00
330.13	3736.00
330.60	3850.00
331.07	3793.00
331.54	3889.00
332.01	3744.00
332.48	3867.00
332.95	3888.00
333.43	3821.00
333.90	3868.00
334.37	3816.00
334.84	3826.00
335.31	3964.00
335.78	3764.00
336.25	3726.00
336.72	3778.00
337.19	3769.00
337.66	3794.00
338.13	3764.00
338.60	3858.00
339.07	3827.00
339.54	3770.00
340.01	3712.00
340.49	3746.00
340.96	3843.00
341.43	3882.00
341.90	3731.00
342.37	3787.00
342.84	3808.00
343.31	3816.00
343.78	3732.00
344.25	3792.00
344.72	3720.00
345.19	3782.00
345.66	3814.00
346.13	3753.00
346.60	3760.00
347.07	3884.00
347.54	3777.00
348.01	3869.00
348.48	3782.00
348.95	3706.00
349.42	3784.00
349.89	3844.00
350.36	3791.00
350.83	3768.00
351.30	3800.00
351.77	3942.00
352.24	3797.00
352.71	3774.00
353.18	3804.00
353.65	3836.00
354.12	3803.00
354.59	3790.00
355.06	3791.00
355.53	3898.00
356.00	3741.00
356.47	3850.00
356.94	3734.00
357.41	3989.00
357.88	3843.00
358.35	3741.00
358.82	3746.00
359.28	3757.00
359.75	3779.00
360.22	3846.00
360.69	3868.00
361.16	3804.00
361.63	3781.00
362.10	3818.00
362.57	3798.00
363.04	3804.00
363.51	3922.00
363.98	3852.00
364.45	3764.00
364.92	3832.00
365.39	3767.00
365.86	3732.00
366.32	3768.00
366.79	3782.00
367.26	4836.00
367.73	4170.00
368.20	3735.00
368.67	3833.00
369.14	3763.00
369.61	3836.00
370.08	3838.00
370.55	3758.00
371.02	4531.00
371.48	3795.00
371.95	3810.00
372.42	3758.00
372.89	3848.00
373.36	3797.00
373.83	3796.00
374.30	3777.00
374.77	3809.00
375.23	3678.00
375.70	3871.00
376.17	3774.00
376.64	3738.00
377.11	3743.00
377.58	3800.00
378.05	3816.00
378.51	3788.00
378.98	3770.00
379.45	3767.00
379.92	3838.00
380.39	3919.00
380.86	3781.00
381.33	3843.00
381.79	3871.00
382.26	3721.00
382.73	3798.00
383.20	3823.00
383.67	3846.00
384.14	3827.00
384.60	4066.00
385.07	3809.00
385.54	3781.00
386.01	3802.00
386.48	3826.00
386.94	3755.00
387.41	3727.00
387.88	3846.00
388.35	3836.00
388.82	3826.00
389.28	3797.00
389.75	3830.00
390.22	3835.00
390.69	3811.00
391.16	3798.00
391.62	3790.00
392.09	3832.00
392.56	3811.00
393.03	3791.00
393.50	3924.00
393.96	3817.00
394.43	3854.00
394.90	3758.00
395.37	3855.00
395.83	4038.00
396.30	3751.00
396.77	3844.00
397.24	3857.00
397.70	3748.00
398.17	3804.00
398.64	3756.00
399.11	3798.00
399.57	3858.00
400.04	3734.00
400.51	3798.00
400.98	3800.00
401.44	3856.00
401.91	3772.00
402.38	3802.00
402.84	3790.00
403.31	3847.00
403.78	3876.00
404.25	3904.00
404.71	3844.00
405.18	3828.00
405.65	3763.00
406.12	3822.00
406.58	3832.00
407.05	3928.00
407.52	3812.00
407.98	4120.00
408.45	3809.00
408.92	3720.00
409.38	3881.00
409.85	3779.00
410.32	3875.00
410.78	3762.00
411.25	3868.00
411.72	3798.00
412.18	3761.00
412.65	3860.00
413.12	3792.00
413.59	3774.00
414.05	3856.00
414.52	3912.00
414.98	3768.00
415.45	3918.00
415.92	3848.00
416.38	3801.00
416.85	3885.00
417.32	3834.00
417.78	3808.00
418.25	3820.00
418.72	3828.00
419.18	3858.00
419.65	3760.00
420.12	3888.00
420.58	3766.00
421.05	3820.00
421.51	3772.00
421.98	3807.00
422.45	3810.00
422.91	3818.00
423.38	3846.00
423.85	3873.00
424.31	3783.00
424.78	3878.00
425.24	3802.00
425.71	3900.00
426.18	3792.00
426.64	3902.00
427.11	3820.00
427.57	3894.00
428.04	3762.00
428.51	3830.00
428.97	3807.00
429.44	3780.00
429.90	3852.00
430.37	3956.00
430.83	3752.00
431.30	3793.00
431.77	3886.00
432.23	3908.00
432.70	3818.00
433.16	3775.00
433.63	3819.00
434.09	3834.00
434.56	3863.00
435.03	3804.00
435.49	3834.00
435.96	3853.00
436.42	3771.00
436.89	3916.00
437.35	3800.00
437.82	3812.00
438.28	3816.00
438.75	3812.00
439.21	3994.00
439.68	3899.00
440.14	3892.00
440.61	3912.00
441.07	3784.00
441.54	3793.00
442.00	4031.00
442.47	3776.00
442.94	3814.00
443.40	3851.00
443.87	3748.00
444.33	3908.00
444.80	3848.00
445.26	3790.00
445.73	3804.00
446.19	3868.00
446.65	3820.00
447.12	3836.00
447.58	3800.00
448.05	3791.00
448.51	3889.00
448.98	3886.00
449.44	3819.00
449.91	3757.00
450.37	3803.00
450.84	3806.00
451.30	3814.00
451.77	3849.00
452.23	3760.00
452.70	3880.00
453.16	3818.00
453.62	3814.00
454.09	3846.00
454.55	3873.00
455.02	3784.00
455.48	3788.00
455.95	3882.00
456.41	3780.00
456.88	3857.00
457.34	3792.00
457.80	3788.00
458.27	3768.00
458.73	3792.00
459.20	3838.00
459.66	3810.00
460.13	3794.00
460.59	3704.00
461.05	3871.00
461.52	3788.00
461.98	3731.00
462.45	3721.00
462.91	3830.00
463.37	3726.00
463.84	3756.00
464.30	3708.00
464.76	3666.00
465.23	3713.00
465.69	3777.00
466.16	3741.00
466.62	3755.00
467.08	3698.00
467.55	3708.00
468.01	3759.00
468.48	3704.00
468.94	3721.00
469.40	3662.00
469.87	3706.00
470.33	3756.00
470.79	3668.00
471.26	3658.00
471.72	3606.00
472.18	3648.00
472.65	3664.00
473.11	3724.00
473.57	3692.00
474.04	3666.00
474.50	3666.00
474.96	3629.00
475.43	3747.00
475.89	3669.00
476.35	3688.00
476.82	3674.00
477.28	3698.00
477.74	3746.00
478.21	3678.00
478.67	3728.00
479.13	3640.00
479.59	3756.00
480.06	3656.00
480.52	3692.00
480.98	3634.00
481.45	3620.00
481.91	3694.00
482.37	3624.00
482.84	3660.00
483.30	3596.00
483.76	3616.00
484.22	3719.00
484.69	3626.00
485.15	3616.00
485.61	3572.00
486.07	3614.00
486.54	3568.00
487.00	3664.00
487.46	3558.00
487.92	3578.00
488.39	3666.00
488.85	3694.00
489.31	3696.00
489.77	3720.00
490.24	3592.00
490.70	3664.00
491.16	3560.00
491.62	3590.00
492.09	3576.00
492.55	3696.00
493.01	3680.00
493.47	3682.00
493.94	3652.00
494.40	3624.00
494.86	3627.00
495.32	3644.00
495.78	3710.00
496.25	3640.00
496.71	3658.00
497.17	3787.00
497.63	3714.00
498.09	3650.00
498.56	3672.00
499.02	3692.00
499.48	3805.00
499.94	3672.00
500.40	3698.00
500.87	3672.00
501.33	3698.00
501.79	3741.00
502.25	3700.00
502.71	4076.00
503.17	3747.00
503.64	3755.00
504.10	3730.00
504.56	3776.00
505.02	3772.00
505.48	3782.00
505.94	3793.00
506.40	3854.00
506.87	3778.00
507.33	3832.00
507.79	3852.00
508.25	3799.00
508.71	3782.00
509.17	3838.00
509.63	3812.00
510.10	3918.00
510.56	3884.00
511.02	4009.00
511.48	4054.00
511.94	3936.00
512.40	3920.00
512.86	3971.00
513.32	4064.00
513.78	3969.00
514.25	4093.00
514.71	4879.00
515.17	4092.00
515.63	4097.00
516.09	4200.00
516.55	4160.00
517.01	4310.00
517.47	4236.00
517.93	4278.00
518.39	4456.00
518.85	4324.00
519.32	4348.00
519.78	4371.00
520.24	4440.00
520.70	4550.00
521.16	4582.00
521.62	4662.00
522.08	4628.00
522.54	4630.00
523.00	4793.00
523.46	4800.00
523.92	4800.00
524.38	5016.00
524.84	4888.00
525.30	5005.00
525.76	4952.00
526.22	4914.00
526.68	4884.00
527.14	5009.00
527.60	5031.00
528.06	5162.00
528.52	5240.00
528.98	5242.00
529.44	5186.00
529.90	5323.00
530.36	5385.00
530.82	5246.00
531.28	5450.00
531.74	5386.00
532.20	5400.00
532.66	5338.00
533.12	5425.00
533.58	5460.00
534.04	5430.00
534.50	5464.00
534.96	5507.00
535.42	5644.00
535.88	5608.00
536.34	5590.00
536.80	5436.00
537.26	5633.00
537.72	5590.00
538.18	5594.00
538.64	5736.00
539.10	5630.00
539.56	5839.00
540.02	5524.00
540.48	5664.00
540.94	5668.00
541.40	5616.00
541.86	5754.00
542.32	5682.00
542.78	5642.00
543.24	5900.00
543.69	5652.00
544.15	5893.00
544.61	5818.00
545.07	5766.00
545.53	5796.00
545.99	5778.00
546.45	5778.00
546.91	5791.00
547.37	5815.00
547.83	5788.00
548.29	5808.00
548.74	5802.00
549.20	5814.00
549.66	5986.00
550.12	5818.00
550.58	5800.00
551.04	5882.00
551.50	5846.00
551.96	6042.00
552.42	5880.00
552.87	5834.00
553.33	5878.00
553.79	5896.00
554.25	5839.00
554.71	5931.00
555.17	5898.00
555.63	5972.00
556.08	5814.00
556.54	5861.00
557.00	5680.00
557.46	5870.00
557.92	5876.00
558.38	5630.00
558.83	5704.00
559.29	5692.00
559.75	5726.00
560.21	5642.00
560.67	5690.00
561.13	5708.00
561.58	5542.00
562.04	5624.00
562.50	5595.00
562.96	5604.00
563.42	5654.00
563.87	5556.00
564.33	5537.00
564.79	5508.00
565.25	5422.00
565.71	5435.00
566.16	5482.00
566.62	5409.00
567.08	5404.00
567.54	5370.00
568.00	5311.00
568.45	5238.00
568.91	5218.00
569.37	5242.00
569.83	5185.00
570.28	5152.00
570.74	5094.00
571.20	5110.00
571.66	5104.00
572.11	5032.00
572.57	5143.00
573.03	4948.00
573.49	4994.00
573.94	4962.00
574.40	5088.00
574.86	4978.00
575.32	4816.00
575.77	4884.00
576.23	4790.00
576.69	4894.00
577.15	4772.00
577.60	4708.00
578.06	4680.00
578.52	4841.00
578.97	4782.00
579.43	4730.00
579.89	4734.00
580.34	4760.00
580.80	4778.00
581.26	4730.00
581.72	4692.00
582.17	4676.00
582.63	4605.00
583.09	4718.00
583.54	4686.00
584.00	4648.00
584.46	4700.00
584.91	4576.00
585.37	4762.00
585.83	4544.00
586.28	4580.00
586.74	4590.00
587.20	4584.00
587.65	4594.00
588.11	4468.00
588.57	4518.00
589.02	4402.00
589.48	4385.00
589.94	4444.00
590.39	4543.00
590.85	4418.00
591.30	4450.00
591.76	4580.00
592.22	4438.00
592.67	4500.00
593.13	4458.00
593.59	4510.00
594.04	4420.00
594.50	4456.00
594.95	4502.00
595.41	4315.00
595.87	4442.00
596.32	4536.00
596.78	4484.00
597.23	4462.00
597.69	4464.00
598.15	4360.00
598.60	4474.00
599.06	4478.00
599.51	4410.00
599.97	4458.00
600.43	4478.00
600.88	4416.00
601.34	4432.00
601.79	4343.00
602.25	4558.00
602.70	4407.00
603.16	4402.00
603.61	4344.00
604.07	4368.00
604.53	4426.00
604.98	4372.00
605.44	4432.00
605.89	4333.00
606.35	4330.00
606.80	4334.00
607.26	4296.00
607.71	4338.00
608.17	4342.00
608.62	4356.00
609.08	4460.00
609.53	4361.00
609.99	4260.00
610.44	4266.00
610.90	4296.00
611.35	4172.00
611.81	4374.00
612.26	4268.00
612.72	4176.00
613.17	4360.00
613.63	4166.00
614.08	4095.00
614.54	4206.00
614.99	4176.00
615.45	4164.00
615.90	4146.00
616.36	4115.00
616.81	4138.00
617.27	4162.00
617.72	4156.00
618.18	4132.00
618.63	4154.00
619.09	4138.00
619.54	4154.00
619.99	4119.00
620.45	4204.00
620.90	4144.00
621.36	4170.00
621.81	4172.00
622.27	4180.00
622.72	4158.00
623.18	4052.00
623.63	4058.00
624.08	4140.00
624.54	4024.00
624.99	4049.00
625.45	4075.00
625.90	4076.00
626.35	4116.00
626.81	4128.00
627.26	4037.00
627.72	4126.00
628.17	4130.00
628.62	4028.00
629.08	4025.00
629.53	4098.00
629.99	4068.00
630.44	4116.00
630.89	4078.00
631.35	4166.00
631.80	4134.00
632.26	4120.00
632.71	4016.00
633.16	4038.00
633.62	4042.00
634.07	4060.00
634.52	4015.00
634.98	4042.00
635.43	3980.00
635.88	4001.00
636.34	4064.00
636.79	4003.00
637.24	4005.00
637.70	4084.00
638.15	4056.00
638.60	4016.00
639.06	3964.00
639.51	3950.00
639.96	3920.00
640.42	4017.00
640.87	4017.00
641.32	3876.00
641.78	3858.00
642.23	3920.00
642.68	3848.00
643.14	3934.00
643.59	3926.00
644.04	3886.00
644.49	3834.00
644.95	3854.00
645.40	3818.00
645.85	3856.00
646.31	3862.00
646.76	3849.00
647.21	3826.00
647.66	3870.00
648.12	3820.00
648.57	3725.00
649.02	3849.00
649.47	3791.00
649.93	4058.00
650.38	3764.00
650.83	3754.00
651.28	3744.00
651.74	3762.00
652.19	3726.00
652.64	3764.00
653.09	3737.00
653.55	3716.00
654.00	3735.00
654.45	3798.00
654.90	3766.00
655.35	3704.00
655.81	3772.00
656.26	3662.00
656.71	3690.00
657.16	3747.00
657.62	3799.00
658.07	3728.00
658.52	3739.00
658.97	3712.00
659.42	3952.00
659.88	3692.00
660.33	3793.00
660.78	3727.00
661.23	3688.00
661.68	3672.00
662.13	3680.00
662.59	3642.00
663.04	3718.00
663.49	3674.00
663.94	3656.00
664.39	3652.00
664.84	3636.00
665.30	3688.00
665.75	3622.00
666.20	3678.00
666.65	3672.00
667.10	3822.00
667.55	3724.00
668.00	3613.00
668.46	3690.00
668.91	3658.00
669.36	3784.00
669.81	3572.00
670.26	3588.00
670.71	3686.00
671.16	3628.00
671.61	3768.00
672.06	3724.00
672.52	3604.00
672.97	3650.00
673.42	3694.00
673.87	3801.00
674.32	3696.00
674.77	3692.00
675.22	3585.00
675.67	3626.00
676.12	3656.00
676.57	3652.00
677.02	3640.00
677.47	3598.00
677.93	3780.00
678.38	3596.00
678.83	3644.00
679.28	3666.00
679.73	3604.00
680.18	3650.00
680.63	3654.00
681.08	3575.00
681.53	3562.00
681.98	3652.00
682.43	3692.00
682.88	3726.00
683.33	3646.00
683.78	3662.00
684.23	3786.00
684.68	3660.00
685.13	3682.00
685.58	3733.00
686.03	3690.00
686.48	3644.00
686.93	3637.00
687.38	3678.00
687.83	3713.00
688.28	3757.00
688.73	3956.00
689.18	3836.00
689.63	3737.00
690.08	3826.00
690.53	3884.00
690.98	3848.00
691.43	3942.00
691.88	3950.00
692.33	4052.00
692.78	4134.00
693.23	4210.00
693.68	4241.00
694.13	4283.00
694.58	4348.00
695.03	4678.00
695.48	4525.00
695.93	4654.00
696.38	4875.00
696.83	4852.00
697.28	4964.00
697.72	5061.00
698.17	5096.00
698.62	5302.00
699.07	5409.00
699.52	5496.00
699.97	5581.00
700.42	5702.00
700.87	5926.00
701.32	6234.00
701.77	6132.00
702.22	6374.00
702.67	6436.00
703.11	6652.00
703.56	6772.00
704.01	6966.00
704.46	7122.00
704.91	7368.00
705.36	7520.00
705.81	7638.00
706.26	7786.00
706.70	7912.00
707.15	8144.00
707.60	8227.00
708.05	8448.00
708.50	8697.00
708.95	8822.00
709.40	8961.00
709.84	9192.00
710.29	9340.00
710.74	9394.00
711.19	9718.00
711.64	9812.00
712.09	10000.00
712.53	10038.00
712.98	10462.00
713.43	10468.00
713.88	10744.00
714.33	10826.00
714.78	10891.00
715.22	11114.00
715.67	11217.00
716.12	11160.00
716.57	10872.00
717.02	10698.00
717.46	10588.00
717.91	10706.00
718.36	10671.00
718.81	10614.00
719.26	10648.00
719.70	10962.00
720.15	11172.00
720.60	11726.00
721.05	12541.00
721.49	13066.00
721.94	13328.00
722.39	13366.00
722.84	13118.00
723.28	12872.00
723.73	12884.00
724.18	12929.00
724.63	13334.00
725.07	13424.00
725.52	13709.00
725.97	13883.00
726.42	14236.00
726.86	14504.00
727.31	14344.00
727.76	14630.00
728.21	14977.00
728.65	14982.00
729.10	15070.00
729.55	15416.00
729.99	15850.00
730.44	15760.00
730.89	16188.00
731.33	16674.00
731.78	17114.00
732.23	17510.00
732.68	17826.00
733.12	18246.00
733.57	18532.00
734.02	18854.00
734.46	19125.00
734.91	19162.00
735.36	19360.00
735.80	19632.00
736.25	19592.00
736.70	19838.00
737.14	20366.00
737.59	20490.00
738.04	20433.00
738.48	20322.00
738.93	20440.00
739.37	20762.00
739.82	21281.00
740.27	21368.00
740.71	21145.00
741.16	21384.00
741.61	21674.00
742.05	21672.00
742.50	21836.00
742.94	22018.00
743.39	22250.00
743.84	22277.00
744.28	22307.00
744.73	22616.00
745.18	22675.00
745.62	22793.00
746.07	22858.00
746.51	22888.00
746.96	23076.00
747.40	22994.00
747.85	22900.00
748.30	23120.00
748.74	22892.00
749.19	22872.00
749.63	23054.00
750.08	23148.00
750.52	23072.00
750.97	23042.00
751.42	23193.00
751.86	23158.00
752.31	23196.00
752.75	23209.00
753.20	23118.00
753.64	23196.00
754.09	23220.00
754.53	23278.00
754.98	23378.00
755.42	23212.00
755.87	23258.00
756.31	23104.00
756.76	22908.00
757.20	22918.00
757.65	22642.00
758.09	22378.00
758.54	21676.00
758.98	19318.00
759.43	15532.00
759.87	11626.00
760.32	9592.00
760.76	9502.00
761.21	11393.00
761.65	13248.00
762.10	13714.00
762.54	12986.00
762.99	12593.00
763.43	12931.00
763.88	13784.00
764.32	14712.00
764.77	15753.00
765.21	16938.00
765.66	17726.00
766.10	18632.00
766.54	19595.00
766.99	20376.00
767.43	20965.00
767.88	21414.00
768.32	21904.00
768.77	21987.00
769.21	22366.00
769.66	22671.00
770.10	22882.00
770.54	23198.00
770.99	23048.00
771.43	23054.00
771.88	23138.00
772.32	23214.00
772.76	22950.00
773.21	23035.00
773.65	22965.00
774.10	22674.00
774.54	22856.00
774.98	22852.00
775.43	23136.00
775.87	23238.00
776.31	23374.00
776.76	23298.00
777.20	23094.00
777.65	23208.00
778.09	23034.00
778.53	22761.00
778.98	22798.00
779.42	22892.00
779.86	22748.00
780.31	22852.00
780.75	22882.00
781.19	22916.00
781.64	22872.00
782.08	23112.00
782.52	22888.00
782.97	22712.00
783.41	22602.00
783.85	22446.00
784.30	22210.00
784.74	22255.00
785.18	22300.00
785.63	22229.00
786.07	22340.00
786.51	22292.00
786.95	22302.00
787.40	22350.00
787.84	22240.00
788.28	21970.00
788.73	22022.00
789.17	21744.00
789.61	21423.00
790.05	21466.00
790.50	21154.00
790.94	21094.00
791.38	21272.00
791.82	21454.00
792.27	21420.00
792.71	21328.00
793.15	21498.00
793.59	21384.00
794.04	21348.00
794.48	21146.00
794.92	21062.00
795.36	20866.00
795.81	20600.00
796.25	20744.00
796.69	20720.00
797.13	21010.00
797.57	21082.00
798.02	21303.00
798.46	21174.00
798.90	21135.00
799.34	20964.00
799.79	21032.00
800.23	20556.00
800.67	20356.00
801.11	20320.00
801.55	20186.00
801.99	20178.00
802.44	20280.00
802.88	20409.00
803.32	20495.00
803.76	20596.00
804.20	20782.00
804.64	20697.00
805.09	20578.00
805.53	20746.00
805.97	20444.00
806.41	20200.00
806.85	20206.00
807.29	19856.00
807.74	19764.00
808.18	19845.00
808.62	19658.00
809.06	19714.00
809.50	19778.00
809.94	19747.00
810.38	19882.00
810.82	19990.00
811.27	19808.00
811.71	19438.00
812.15	19046.00
812.59	18684.00
813.03	18314.00
813.47	17712.00
813.91	17278.00
814.35	17050.00
814.79	16890.00
815.23	16754.00
815.67	16566.00
816.12	16579.00
816.56	16623.00
817.00	16674.00
817.44	16976.00
817.88	16874.00
818.32	16630.00
818.76	16798.00
819.20	16758.00
819.64	16878.00
820.08	17168.00
820.52	17539.00
820.96	17742.00
821.40	17422.00
821.84	16855.00
822.28	16160.00
822.72	15942.00
823.16	16062.00
823.60	16738.00
824.04	17834.00
824.48	17938.00
824.92	17964.00
825.36	18046.00
825.80	17650.00
826.24	17530.00
826.68	17318.00
827.12	17306.00
827.56	17108.00
828.00	17092.00
828.44	17096.00
828.88	17434.00
829.32	17596.00
829.76	17684.00
830.20	17852.00
830.64	17665.00
831.08	17618.00
831.52	17362.00
831.96	17156.00
832.40	16776.00
832.84	17136.00
833.28	17206.00
833.72	17578.00
834.16	17762.00
834.60	18188.00
835.04	18412.00
835.48	18596.00
835.91	18522.00
836.35	18412.00
836.79	18410.00
837.23	18256.00
837.67	17976.00
838.11	17912.00
838.55	17982.00
838.99	17900.00
839.43	18150.00
839.87	18298.00
840.30	18552.00
840.74	18796.00
841.18	18882.00
841.62	18936.00
842.06	18868.00
842.50	18918.00
842.94	18822.00
843.38	18532.00
843.81	18236.00
844.25	18112.00
844.69	17956.00
845.13	17796.00
845.57	17878.00
846.01	18028.00
846.45	18234.00
846.88	18352.00
847.32	18506.00
847.76	18604.00
848.20	18720.00
848.64	18514.00
849.08	18383.00
849.51	18326.00
849.95	17905.00
850.39	17978.00
850.83	18232.00
851.27	17980.00
851.70	17764.00
852.14	17694.00
852.58	17304.00
853.02	16798.00
853.46	16292.00
853.89	16412.00
854.33	16318.00
854.77	17034.00
855.21	18028.00
855.65	18542.00
856.08	18848.00
856.52	18870.00
856.96	18672.00
857.40	18254.00
857.83	18038.00
858.27	17716.00
858.71	17540.00
859.15	17473.00
859.58	17516.00
860.02	17730.00
860.46	18132.00
860.89	18224.00
861.33	18342.00
861.77	18498.00
862.21	18724.00
862.64	18724.00
863.08	18588.00
863.52	18436.00
863.95	18242.00
864.39	17920.00
864.83	17286.00
865.27	16500.00
865.70	16550.00
866.14	16048.00
866.58	16232.00
867.01	17022.00
867.45	17530.00
867.89	17875.00
868.32	18083.00
868.76	18362.00
869.20	18502.00
869.63	18566.00
870.07	18272.00
870.51	17864.00
870.94	17556.00
871.38	17175.00
871.82	16890.00
872.25	16824.00
872.69	16748.00
873.13	16752.00
873.56	17062.00
874.00	17218.00
874.43	17380.00
874.87	17670.00
875.31	17960.00
875.74	17867.00
876.18	18038.00
876.61	17946.00
877.05	17793.00
877.49	17610.00
877.92	17404.00
878.36	17134.00
878.79	17010.00
879.23	16635.00
879.67	16248.00
880.10	16410.00
880.54	16436.00
880.97	16496.00
881.41	17106.00
881.84	17376.00
882.28	17708.00
882.72	17873.00
883.15	18087.00
883.59	18061.00
884.02	18106.00
884.46	18044.00
884.89	17926.00
885.33	17437.00
885.76	16960.00
886.20	16676.00
886.63	16382.00
887.07	16258.00
887.50	16274.00
887.94	16396.00
888.37	16448.00
888.81	16868.00
889.24	16654.00
889.68	17030.00
890.11	17166.00
890.55	17202.00
890.98	17448.00
891.42	17364.00
891.85	17450.00
892.29	17342.00
892.72	16984.00
893.16	16236.00
893.59	16066.00
894.03	15760.00
894.46	15190.00
894.90	14728.00
895.33	14088.00
895.77	14146.00
896.20	13980.00
896.63	14069.00
897.07	14067.00
897.50	13922.00
897.94	14214.00
898.37	14698.00
898.81	13656.00
899.24	13902.00
899.68	14424.00
900.11	14286.00
900.54	13828.00
900.98	13786.00
901.41	13746.00
901.85	13793.00
902.28	13834.00
902.71	13926.00
903.15	14372.00
903.58	14772.00
904.02	14694.00
904.45	14698.00
904.88	14574.00
905.32	14469.00
905.75	14392.00
906.18	14108.00
906.62	14119.00
907.05	13882.00
907.48	13890.00
907.92	13701.00
908.35	13842.00
908.79	13486.00
909.22	13504.00
909.65	13364.00
910.09	13390.00
910.52	13188.00
910.95	13168.00
911.38	13191.00
911.82	12868.00
912.25	13120.00
912.68	13350.00
913.12	13148.00
913.55	13207.00
913.98	13706.00
914.42	14206.00
914.85	14166.00
915.28	13734.00
915.72	13642.00
916.15	13532.00
916.58	13686.00
917.01	13015.00
917.45	12985.00
917.88	13172.00
918.31	13374.00
918.74	13786.00
919.18	13804.00
919.61	13900.00
920.04	14120.00
920.47	14344.00
920.91	14312.00
921.34	14164.00
921.77	14283.00
922.20	14548.00
922.64	14500.00
923.07	14544.00
923.50	14355.00
923.93	14170.00
924.37	13906.00
924.80	13596.00
925.23	13584.00
925.66	13158.00
926.09	12646.00
926.53	12470.00
926.96	11972.00
927.39	11549.00
927.82	10927.00
928.25	10600.00
928.69	10554.00
929.12	10342.00
929.55	9881.00
929.98	9628.00
930.41	9074.00
930.84	8884.00
931.28	8338.00
931.71	7892.00
932.14	7284.00
932.57	7232.00
933.00	6932.00
933.43	6791.00
933.86	6440.00
934.30	6293.00
934.73	6819.00
935.16	6482.00
935.59	6283.00
936.02	6522.00
936.45	6432.00
936.88	6406.00
937.31	6884.00
937.75	7016.00
938.18	7352.00
938.61	7544.00
939.04	7829.00
939.47	7726.00
939.90	7426.00
940.33	7195.00
940.76	6720.00
941.19	6630.00
941.62	6498.00
942.05	6399.00
942.48	6017.00
942.91	6012.00
943.35	6206.00
943.78	6010.00
944.21	5996.00
944.64	6320.00
945.07	6366.00
945.50	6232.00
945.93	6368.00
946.36	6575.00
946.79	6762.00
947.22	6972.00
947.65	6738.00
948.08	6547.00
948.51	7055.00
948.94	6992.00
949.37	6831.00
949.80	6639.00
950.23	6740.00
950.66	6972.00
951.09	6915.00
951.52	6576.00
951.95	6752.00
952.38	6787.00
952.81	7200.00
953.24	7408.00
953.67	7488.00
954.10	7394.00
954.53	7674.00
954.96	7532.00
955.39	7875.00
955.82	8092.00
956.25	7816.00
956.68	8254.00
957.11	8108.00
957.53	8048.00
957.96	7902.00
958.39	7724.00
958.82	7504.00
959.25	7782.00
959.68	7978.00
960.11	8020.00
960.54	8124.00
960.97	8530.00
961.40	8630.00
961.83	8568.00
962.26	8664.00
962.68	9302.00
963.11	9320.00
963.54	9383.00
963.97	9460.00
964.40	9446.00
964.83	9756.00
965.26	9784.00
965.69	9629.00
966.11	9645.00
966.54	9684.00
966.97	10012.00
967.40	10038.00
967.83	10196.00
968.26	10052.00
968.69	10148.00
969.11	10223.00
969.54	9976.00
969.97	10102.00
970.40	10256.00
970.83	10254.00
971.26	10328.00
971.68	10318.00
972.11	10378.00
972.54	10700.00
972.97	10504.00
973.40	10368.00
973.82	10489.00
974.25	10435.00
974.68	10330.00
975.11	10096.00
975.54	9966.00
975.96	9899.00
976.39	9938.00
976.82	9960.00
977.25	9842.00
977.67	9822.00
978.10	9862.00
978.53	10026.00
978.96	10344.00
979.38	10358.00
979.81	10512.00
980.24	10762.00
980.67	10884.00
981.09	10996.00
981.52	11134.00
981.95	11032.00
982.38	11132.00
982.80	11216.00
983.23	11360.00
983.66	11504.00
984.08	11183.00
984.51	11146.00
984.94	11100.00
985.37	11094.00
985.79	10788.00
986.22	10651.00
986.65	10506.00
987.07	10377.00
987.50	10526.00
987.93	10466.00
988.35	10550.00
988.78	10590.00
989.21	10524.00
989.63	10750.00
990.06	10906.00
990.49	10929.00
990.91	11254.00
991.34	11254.00
991.77	11140.00
992.19	11277.00
992.62	11242.00
993.05	11170.00
993.47	11168.00
993.90	11049.00
994.32	10952.00
994.75	10728.00
995.18	10560.00
995.60	10476.00
996.03	10344.00
996.45	10364.00
996.88	10184.00
997.31	10102.00
997.73	10122.00
998.16	10154.00
998.58	10350.00
999.01	10340.00
999.44	10432.00
999.86	10454.00
1000.29	10578.00
1000.71	10651.00
1001.14	10698.00
1001.56	10660.00
1001.99	10672.00
1002.41	10510.00
1002.84	10288.00
1003.27	9998.00
1003.69	10080.00
1004.12	9944.00
1004.54	9744.00
1004.97	9540.00
1005.39	9401.00
1005.82	9416.00
1006.24	9388.00
1006.67	9355.00
1007.09	9306.00
1007.52	9306.00
1007.94	9438.00
1008.37	9636.00
1008.79	9515.00
1009.22	9436.00
1009.64	9516.00
1010.07	9450.00
1010.49	9508.00
1010.92	9576.00
1011.34	9663.00
1011.77	9576.00
1012.19	9534.00
1012.62	9494.00
1013.04	9355.00
1013.46	9318.00
1013.89	9026.00
1014.31	9002.00
1014.74	8845.00
1015.16	8748.00
1015.59	8758.00
1016.01	8820.00
1016.44	8633.00
1016.86	9740.00
1017.28	8802.00
1017.71	8820.00
1018.13	9032.00
1018.56	9048.00
1018.98	9156.00
1019.40	9144.00
1019.83	9198.00
1020.25	9102.00
1020.68	9310.00
1021.10	9370.00
1021.52	9268.00
1021.95	9560.00
1022.37	9382.00
1022.79	9383.00
1023.22	9308.00
1023.64	9141.00
1024.07	9196.00
1024.49	9165.00
1024.91	8922.00
1025.34	8864.00
1025.76	9016.00
1026.18	8714.00
1026.61	8746.00
1027.03	8656.00
1027.45	8776.00
1027.88	8675.00
1028.30	8920.00
1028.72	8892.00
1029.15	8886.00
1029.57	8890.00
1029.99	8916.00
1030.41	8852.00
1030.84	8891.00
1031.26	8852.00
1031.68	8746.00
1032.11	8762.00
1032.53	8616.00
1032.95	8570.00
1033.37	8468.00
1033.80	8514.00
1034.22	8288.00
1034.64	8348.00
1035.06	8172.00
1035.49	8022.00
1035.91	8024.00
1036.33	7830.00
1036.75	7942.00
1037.18	7855.00
1037.60	7884.00
1038.02	7860.00
1038.44	7896.00
1038.87	7871.00
1039.29	7802.00
1039.71	7862.00
1040.13	7812.00
1040.55	8006.00
1040.98	7897.00
1041.40	7837.00
1041.82	7871.00
1042.24	7794.00
1042.66	7748.00
1043.09	7590.00
1043.51	7510.00
1043.93	7456.00
1044.35	7348.00
1044.77	7222.00
1045.20	7198.00
1045.62	7074.00
1046.04	7112.00
1046.46	7138.00
1046.88	6972.00
1047.30	6996.00
1047.72	6936.00
1048.15	6892.00
1048.57	6870.00
1048.99	6831.00
1049.41	6886.00
1049.83	6906.00
1050.25	6912.00
1050.67	6810.00
1051.09	6758.00
1051.52	6826.00
1051.94	6706.00
1052.36	6698.00
1052.78	6680.00
1053.20	6701.00
1053.62	6580.00
1054.04	6638.00
1054.46	6514.00
1054.88	6622.00
1055.30	6538.00
1055.72	6496.00
1056.14	6386.00
1056.57	6553.00
1056.99	6204.00
1057.41	6220.00
1057.83	6222.00
1058.25	6162.00
1058.67	6075.00
1059.09	5980.00
1059.51	6059.00
1059.93	5994.00
1060.35	5919.00
1060.77	5996.00
1061.19	6044.00
1061.61	5852.00
1062.03	5836.00
1062.45	5828.00
1062.87	5938.00
1063.29	5846.00
1063.71	5826.00
1064.13	5730.00
1064.55	5704.00
1064.97	5811.00
1065.39	5756.00
1065.81	5692.00
1066.23	5636.00
1066.65	5636.00
1067.07	5746.00
1067.49	5622.00
1067.91	5532.00
1068.33	5426.00
1068.75	5547.00
1069.17	5430.00
1069.59	5510.00
1070.00	5428.00
1070.42	5404.00
1070.84	5287.00
1071.26	5262.00
1071.68	5300.00
1072.10	5330.00
1072.52	5284.00
1072.94	5284.00
1073.36	5222.00
1073.78	5216.00
1074.20	5248.00
1074.62	5174.00
1075.03	5156.00
1075.45	5236.00
1075.87	5250.00
1076.29	5164.00
1076.71	5178.00
1077.13	5324.00
1077.55	5030.00
1077.97	5104.00
1078.38	5011.00
1078.80	5070.00
1079.22	5025.00
1079.64	4990.00
1080.06	4886.00
1080.48	4916.00
1080.89	4834.00
1081.31	4858.00
1081.73	4838.00
1082.15	4876.00
1082.57	4837.00
1082.99	4807.00
1083.40	4760.00
1083.82	4852.00
1084.24	4682.00
1084.66	4774.00
1085.08	4714.00
1085.49	4682.00
1085.91	4778.00
1086.33	6118.00
1086.75	4682.00
1087.17	4684.00
1087.58	4694.00
1088.00	4686.00
1088.42	4702.00
1088.84	4636.00
1089.25	4592.00
1089.67	4608.00
1090.09	4562.00
1090.51	4510.00
1090.92	4595.00
1091.34	4495.00
1091.76	4488.00
1092.18	4489.00
1092.59	4424.00
1093.01	4328.00
1093.43	4338.00
1093.84	4352.00
1094.26	4340.00
1094.68	4360.00
1095.10	4312.00
1095.51	4374.00
1095.93	4255.00
1096.35	4360.00
1096.76	4332.00
1097.18	4320.00
1097.60	4267.00
1098.01	4234.00
1098.43	4186.00
1098.85	4216.00
1099.26	4170.00
1099.68	4170.00
1100.10	4050.00
1100.51	4156.00
1100.93	4114.00
1101.35	4116.00
1101.76	4122.00
1102.18	4708.00
1102.60	4128.00
1103.01	3962.00
1103.43	4064.00
1103.84	4011.00
1104.26	3972.00
1104.68	3984.00
1105.09	3926.00
1105.51	3960.00
1105.92	4034.00
1106.34	3902.00
1106.76	3956.00
1107.17	3942.00
1107.59	3942.00
1108.00	3836.00
1108.42	3860.00
1108.83	3791.00
1109.25	3830.00
1109.67	3758.00
1110.08	3828.00
1110.50	3739.00
1110.91	3768.00
1111.33	3676.00
1111.74	3704.00
1112.16	3782.00
1112.57	3780.00
1112.99	3656.00
1113.41	3658.00
1113.82	3672.00
1114.24	3678.00
1114.65	3610.00
1115.07	3510.00
1115.48	3380.00
1115.90	2190.00
1116.31	2215.00
1116.73	2223.00
1117.14	2221.00
>>>>>End Processed Spectral Data<<<<<
