SpectraSuite Data File
++++++++++++++++++++++++++++++++++++
Date: Tue May 29 12:59:38 EEST 2018
User: CanSEE
Dark Spectrum Present: No
Reference Spectrum Present: No
Number of Sampled Component Spectra: 1
Spectrometers: MAYP11278
Integration Time (usec): 250000 (MAYP11278)
Spectra Averaged: 1 (MAYP11278)
Boxcar Smoothing: 0 (MAYP11278)
Correct for Electrical Dark: No (MAYP11278)
Strobe/Lamp Enabled: No (MAYP11278)
Correct for Detector Non-linearity: No (MAYP11278)
Correct for Stray Light: No (MAYP11278)
Number of Pixels in Processed Spectrum: 2068
>>>>>Begin Processed Spectral Data<<<<<
187.82	2317.00
188.30	2229.00
188.78	2199.00
189.26	2202.00
189.73	2977.00
190.21	3043.00
190.69	3144.00
191.17	3125.00
191.64	3186.00
192.12	3141.00
192.60	3114.00
193.07	3147.00
193.55	3154.00
194.03	3131.00
194.51	3176.00
194.98	3131.00
195.46	3159.00
195.94	3132.00
196.42	3132.00
196.89	3190.00
197.37	3142.00
197.85	3135.00
198.32	3142.00
198.80	3144.00
199.28	3142.00
199.76	3185.00
200.23	3138.00
200.71	3158.00
201.19	3163.00
201.66	3151.00
202.14	3168.00
202.62	3141.00
203.09	3184.00
203.57	3119.00
204.05	3188.00
204.53	3193.00
205.00	3150.00
205.48	3138.00
205.96	3180.00
206.43	3139.00
206.91	3196.00
207.39	3251.00
207.86	3183.00
208.34	3206.00
208.82	3183.00
209.29	3198.00
209.77	3200.00
210.25	3179.00
210.72	3160.00
211.20	3212.00
211.68	3218.00
212.15	3133.00
212.63	3201.00
213.11	3201.00
213.58	3166.00
214.06	3235.00
214.53	3187.00
215.01	3189.00
215.49	3172.00
215.96	3190.00
216.44	3182.00
216.92	3192.00
217.39	3152.00
217.87	3170.00
218.35	3203.00
218.82	3127.00
219.30	3134.00
219.77	3142.00
220.25	3160.00
220.73	3263.00
221.20	3136.00
221.68	3169.00
222.15	3147.00
222.63	3200.00
223.11	3152.00
223.58	3178.00
224.06	3199.00
224.53	3151.00
225.01	3146.00
225.49	3179.00
225.96	3185.00
226.44	3146.00
226.91	3188.00
227.39	3144.00
227.87	3186.00
228.34	3206.00
228.82	3178.00
229.29	3166.00
229.77	3168.00
230.24	3147.00
230.72	3178.00
231.20	3194.00
231.67	3170.00
232.15	3183.00
232.62	3137.00
233.10	3137.00
233.57	3223.00
234.05	3326.00
234.53	3170.00
235.00	3141.00
235.48	3138.00
235.95	3183.00
236.43	3221.00
236.90	3242.00
237.38	3185.00
237.85	3190.00
238.33	3166.00
238.80	3187.00
239.28	3173.00
239.75	3106.00
240.23	3181.00
240.71	3204.00
241.18	3212.00
241.66	3122.00
242.13	3195.00
242.61	3232.00
243.08	3146.00
243.56	3139.00
244.03	3219.00
244.51	3244.00
244.98	3160.00
245.46	3214.00
245.93	4750.00
246.41	3116.00
246.88	3163.00
247.36	3177.00
247.83	3218.00
248.31	3197.00
248.78	3164.00
249.26	3181.00
249.73	3232.00
250.21	3175.00
250.68	3232.00
251.16	3188.00
251.63	3245.00
252.10	3207.00
252.58	3182.00
253.05	3248.00
253.53	3210.00
254.00	3150.00
254.48	3215.00
254.95	3191.00
255.43	3225.00
255.90	3182.00
256.38	3205.00
256.85	3195.00
257.33	3227.00
257.80	3309.00
258.27	3177.00
258.75	3172.00
259.22	3204.00
259.70	3165.00
260.17	3245.00
260.65	3154.00
261.12	3173.00
261.59	3236.00
262.07	3152.00
262.54	3207.00
263.02	3207.00
263.49	3158.00
263.97	3214.00
264.44	3267.00
264.91	3189.00
265.39	3212.00
265.86	3228.00
266.34	3226.00
266.81	3177.00
267.28	3191.00
267.76	3181.00
268.23	3209.00
268.71	3141.00
269.18	3113.00
269.65	3154.00
270.13	3185.00
270.60	3210.00
271.08	3155.00
271.55	3191.00
272.02	3159.00
272.50	3170.00
272.97	3130.00
273.44	3178.00
273.92	3310.00
274.39	3200.00
274.87	3193.00
275.34	3134.00
275.81	3138.00
276.29	3180.00
276.76	3170.00
277.23	3062.00
277.71	3098.00
278.18	3054.00
278.65	3252.00
279.13	3096.00
279.60	3148.00
280.07	3416.00
280.55	3373.00
281.02	3442.00
281.50	3256.00
281.97	3300.00
282.44	3219.00
282.91	3254.00
283.39	3186.00
283.86	3180.00
284.33	3168.00
284.81	3241.00
285.28	3168.00
285.75	3225.00
286.23	3215.00
286.70	3160.00
287.17	3189.00
287.65	3282.00
288.12	3192.00
288.59	3209.00
289.07	3125.00
289.54	3228.00
290.01	3156.00
290.48	3201.00
290.96	3179.00
291.43	3216.00
291.90	3290.00
292.38	3173.00
292.85	3223.00
293.32	3163.00
293.79	3218.00
294.27	3220.00
294.74	3184.00
295.21	3238.00
295.69	3200.00
296.16	3282.00
296.63	3249.00
297.10	3207.00
297.58	3240.00
298.05	3248.00
298.52	3196.00
298.99	3243.00
299.47	3179.00
299.94	3221.00
300.41	3176.00
300.88	3250.00
301.36	3228.00
301.83	3198.00
302.30	3137.00
302.77	3242.00
303.25	3226.00
303.72	3184.00
304.19	3196.00
304.66	3191.00
305.13	3224.00
305.61	3220.00
306.08	3191.00
306.55	3202.00
307.02	3198.00
307.49	3189.00
307.97	3226.00
308.44	3205.00
308.91	3223.00
309.38	3227.00
309.86	3186.00
310.33	3187.00
310.80	3241.00
311.27	3226.00
311.74	3243.00
312.21	3183.00
312.69	3263.00
313.16	3172.00
313.63	3218.00
314.10	3228.00
314.57	3224.00
315.05	3178.00
315.52	3245.00
315.99	3247.00
316.46	3215.00
316.93	3233.00
317.40	3232.00
317.88	3312.00
318.35	3212.00
318.82	3209.00
319.29	3188.00
319.76	3274.00
320.23	3293.00
320.70	3277.00
321.18	3225.00
321.65	3159.00
322.12	3198.00
322.59	3291.00
323.06	3240.00
323.53	3312.00
324.00	3185.00
324.48	3212.00
324.95	3197.00
325.42	3237.00
325.89	3213.00
326.36	3211.00
326.83	3268.00
327.30	3244.00
327.77	3261.00
328.24	3263.00
328.72	3195.00
329.19	3183.00
329.66	3221.00
330.13	3223.00
330.60	3246.00
331.07	3222.00
331.54	3307.00
332.01	3172.00
332.48	3276.00
332.95	3243.00
333.43	3245.00
333.90	3271.00
334.37	3229.00
334.84	3252.00
335.31	3353.00
335.78	3191.00
336.25	3266.00
336.72	3223.00
337.19	3245.00
337.66	3219.00
338.13	3206.00
338.60	3249.00
339.07	3295.00
339.54	3212.00
340.01	3204.00
340.49	3179.00
340.96	3230.00
341.43	3278.00
341.90	3195.00
342.37	3244.00
342.84	3259.00
343.31	3243.00
343.78	3185.00
344.25	3238.00
344.72	3206.00
345.19	3227.00
345.66	3245.00
346.13	3179.00
346.60	3200.00
347.07	3267.00
347.54	3197.00
348.01	3265.00
348.48	3221.00
348.95	3220.00
349.42	3223.00
349.89	3238.00
350.36	3194.00
350.83	3213.00
351.30	3228.00
351.77	3325.00
352.24	3247.00
352.71	3230.00
353.18	3272.00
353.65	3259.00
354.12	3223.00
354.59	3252.00
355.06	3227.00
355.53	3323.00
356.00	3211.00
356.47	3310.00
356.94	3241.00
357.41	3347.00
357.88	3245.00
358.35	3230.00
358.82	3174.00
359.28	3234.00
359.75	3217.00
360.22	3301.00
360.69	3304.00
361.16	3245.00
361.63	3208.00
362.10	3238.00
362.57	3232.00
363.04	3283.00
363.51	3319.00
363.98	3260.00
364.45	3220.00
364.92	3254.00
365.39	3215.00
365.86	3185.00
366.32	3263.00
366.79	3272.00
367.26	3937.00
367.73	3236.00
368.20	3218.00
368.67	3273.00
369.14	3207.00
369.61	3258.00
370.08	3268.00
370.55	3190.00
371.02	3758.00
371.48	3247.00
371.95	3181.00
372.42	3180.00
372.89	3218.00
373.36	3222.00
373.83	3184.00
374.30	3204.00
374.77	3274.00
375.23	3218.00
375.70	3288.00
376.17	3222.00
376.64	3205.00
377.11	3227.00
377.58	3247.00
378.05	3246.00
378.51	3227.00
378.98	3224.00
379.45	3224.00
379.92	3263.00
380.39	3363.00
380.86	3221.00
381.33	3289.00
381.79	3315.00
382.26	3223.00
382.73	3253.00
383.20	3247.00
383.67	3258.00
384.14	3228.00
384.60	3456.00
385.07	3260.00
385.54	3237.00
386.01	3215.00
386.48	3314.00
386.94	3212.00
387.41	3201.00
387.88	3273.00
388.35	3247.00
388.82	3298.00
389.28	3246.00
389.75	3295.00
390.22	3260.00
390.69	3257.00
391.16	3262.00
391.62	3236.00
392.09	3257.00
392.56	3243.00
393.03	3239.00
393.50	3349.00
393.96	3219.00
394.43	3262.00
394.90	3222.00
395.37	3274.00
395.83	3405.00
396.30	3223.00
396.77	3270.00
397.24	3326.00
397.70	3183.00
398.17	3253.00
398.64	3245.00
399.11	3257.00
399.57	3313.00
400.04	3218.00
400.51	3273.00
400.98	3233.00
401.44	3293.00
401.91	3263.00
402.38	3293.00
402.84	3271.00
403.31	3335.00
403.78	3278.00
404.25	3356.00
404.71	3334.00
405.18	3330.00
405.65	3249.00
406.12	3319.00
406.58	3293.00
407.05	3334.00
407.52	3303.00
407.98	3936.00
408.45	3303.00
408.92	3230.00
409.38	3357.00
409.85	3261.00
410.32	3339.00
410.78	3274.00
411.25	3331.00
411.72	3287.00
412.18	3238.00
412.65	3324.00
413.12	3279.00
413.59	3328.00
414.05	3319.00
414.52	3372.00
414.98	3262.00
415.45	3342.00
415.92	3316.00
416.38	3301.00
416.85	3337.00
417.32	3338.00
417.78	3286.00
418.25	3308.00
418.72	3305.00
419.18	3320.00
419.65	3281.00
420.12	3306.00
420.58	3299.00
421.05	3305.00
421.51	3281.00
421.98	3292.00
422.45	3265.00
422.91	3335.00
423.38	3317.00
423.85	3295.00
424.31	3299.00
424.78	3362.00
425.24	3289.00
425.71	3351.00
426.18	3239.00
426.64	3339.00
427.11	3295.00
427.57	3348.00
428.04	3273.00
428.51	3357.00
428.97	3315.00
429.44	3297.00
429.90	3292.00
430.37	3394.00
430.83	3277.00
431.30	3303.00
431.77	3335.00
432.23	3368.00
432.70	3302.00
433.16	3243.00
433.63	3329.00
434.09	3259.00
434.56	3354.00
435.03	3267.00
435.49	3332.00
435.96	3326.00
436.42	3275.00
436.89	3306.00
437.35	3292.00
437.82	3351.00
438.28	3315.00
438.75	3296.00
439.21	3469.00
439.68	3324.00
440.14	3304.00
440.61	3384.00
441.07	3287.00
441.54	3303.00
442.00	3426.00
442.47	3302.00
442.94	3317.00
443.40	3334.00
443.87	3267.00
444.33	3382.00
444.80	3305.00
445.26	3331.00
445.73	3345.00
446.19	3361.00
446.65	3349.00
447.12	3368.00
447.58	3312.00
448.05	3301.00
448.51	3378.00
448.98	3357.00
449.44	3331.00
449.91	3326.00
450.37	3339.00
450.84	3355.00
451.30	3366.00
451.77	3387.00
452.23	3317.00
452.70	3382.00
453.16	3380.00
453.62	3376.00
454.09	3327.00
454.55	3390.00
455.02	3322.00
455.48	3337.00
455.95	3355.00
456.41	3306.00
456.88	3358.00
457.34	3362.00
457.80	3319.00
458.27	3315.00
458.73	3354.00
459.20	3364.00
459.66	3343.00
460.13	3283.00
460.59	3272.00
461.05	3365.00
461.52	3342.00
461.98	3257.00
462.45	3263.00
462.91	3310.00
463.37	3257.00
463.84	3302.00
464.30	3252.00
464.76	3237.00
465.23	3259.00
465.69	3298.00
466.16	3257.00
466.62	3260.00
467.08	3287.00
467.55	3228.00
468.01	3257.00
468.48	3294.00
468.94	3264.00
469.40	3210.00
469.87	3251.00
470.33	3255.00
470.79	3234.00
471.26	3200.00
471.72	3183.00
472.18	3192.00
472.65	3196.00
473.11	3276.00
473.57	3238.00
474.04	3187.00
474.50	3221.00
474.96	3165.00
475.43	3236.00
475.89	3201.00
476.35	3218.00
476.82	3211.00
477.28	3212.00
477.74	3246.00
478.21	3214.00
478.67	3268.00
479.13	3181.00
479.59	3277.00
480.06	3208.00
480.52	3216.00
480.98	3213.00
481.45	3171.00
481.91	3225.00
482.37	3138.00
482.84	3216.00
483.30	3182.00
483.76	3203.00
484.22	3258.00
484.69	3208.00
485.15	3174.00
485.61	3110.00
486.07	3177.00
486.54	3161.00
487.00	3188.00
487.46	3130.00
487.92	3162.00
488.39	3193.00
488.85	3187.00
489.31	3191.00
489.77	3200.00
490.24	3166.00
490.70	3204.00
491.16	3193.00
491.62	3171.00
492.09	3164.00
492.55	3266.00
493.01	3229.00
493.47	3221.00
493.94	3217.00
494.40	3234.00
494.86	3226.00
495.32	3192.00
495.78	3234.00
496.25	3232.00
496.71	3241.00
497.17	3322.00
497.63	3304.00
498.09	3241.00
498.56	3271.00
499.02	3241.00
499.48	3335.00
499.94	3236.00
500.40	3269.00
500.87	3305.00
501.33	3322.00
501.79	3312.00
502.25	3328.00
502.71	3565.00
503.17	3333.00
503.64	3385.00
504.10	3331.00
504.56	3368.00
505.02	3444.00
505.48	3397.00
505.94	3455.00
506.40	3509.00
506.87	3446.00
507.33	3486.00
507.79	3484.00
508.25	3513.00
508.71	3519.00
509.17	3521.00
509.63	3514.00
510.10	3581.00
510.56	3575.00
511.02	3663.00
511.48	3753.00
511.94	3704.00
512.40	3674.00
512.86	3707.00
513.32	3783.00
513.78	3729.00
514.25	3781.00
514.71	4338.00
515.17	3817.00
515.63	3882.00
516.09	3902.00
516.55	3842.00
517.01	3990.00
517.47	3923.00
517.93	3993.00
518.39	4103.00
518.85	4062.00
519.32	4113.00
519.78	4163.00
520.24	4196.00
520.70	4252.00
521.16	4331.00
521.62	4428.00
522.08	4374.00
522.54	4358.00
523.00	4496.00
523.46	4522.00
523.92	4529.00
524.38	4711.00
524.84	4705.00
525.30	4656.00
525.76	4690.00
526.22	4585.00
526.68	4541.00
527.14	4641.00
527.60	4733.00
528.06	4865.00
528.52	4875.00
528.98	4896.00
529.44	4895.00
529.90	4929.00
530.36	4991.00
530.82	5024.00
531.28	5136.00
531.74	5021.00
532.20	5002.00
532.66	4942.00
533.12	5098.00
533.58	5032.00
534.04	5027.00
534.50	5055.00
534.96	5114.00
535.42	5187.00
535.88	5181.00
536.34	5118.00
536.80	5106.00
537.26	5162.00
537.72	5223.00
538.18	5213.00
538.64	5238.00
539.10	5206.00
539.56	5342.00
540.02	5046.00
540.48	5148.00
540.94	5122.00
541.40	5114.00
541.86	5229.00
542.32	5193.00
542.78	5237.00
543.24	5287.00
543.69	5180.00
544.15	5300.00
544.61	5224.00
545.07	5206.00
545.53	5210.00
545.99	5361.00
546.45	5278.00
546.91	5210.00
547.37	5207.00
547.83	5240.00
548.29	5290.00
548.74	5232.00
549.20	5236.00
549.66	5357.00
550.12	5257.00
550.58	5266.00
551.04	5287.00
551.50	5234.00
551.96	5451.00
552.42	5288.00
552.87	5234.00
553.33	5245.00
553.79	5263.00
554.25	5259.00
554.71	5290.00
555.17	5316.00
555.63	5332.00
556.08	5265.00
556.54	5229.00
557.00	5112.00
557.46	5144.00
557.92	5288.00
558.38	5114.00
558.83	5080.00
559.29	5101.00
559.75	5061.00
560.21	5030.00
560.67	5123.00
561.13	5071.00
561.58	4972.00
562.04	5061.00
562.50	5015.00
562.96	5075.00
563.42	5024.00
563.87	4952.00
564.33	5018.00
564.79	4918.00
565.25	4853.00
565.71	4856.00
566.16	4888.00
566.62	4850.00
567.08	4847.00
567.54	4834.00
568.00	4817.00
568.45	4708.00
568.91	4700.00
569.37	4750.00
569.83	4674.00
570.28	4666.00
570.74	4591.00
571.20	4562.00
571.66	4609.00
572.11	4565.00
572.57	4594.00
573.03	4512.00
573.49	4516.00
573.94	4549.00
574.40	4515.00
574.86	4502.00
575.32	4407.00
575.77	4427.00
576.23	4355.00
576.69	4429.00
577.15	4331.00
577.60	4326.00
578.06	4257.00
578.52	4362.00
578.97	4346.00
579.43	4273.00
579.89	4307.00
580.34	4329.00
580.80	4246.00
581.26	4261.00
581.72	4284.00
582.17	4252.00
582.63	4207.00
583.09	4257.00
583.54	4252.00
584.00	4240.00
584.46	4243.00
584.91	4173.00
585.37	4266.00
585.83	4095.00
586.28	4108.00
586.74	4158.00
587.20	4157.00
587.65	4171.00
588.11	4053.00
588.57	4062.00
589.02	3960.00
589.48	3905.00
589.94	4032.00
590.39	4078.00
590.85	4023.00
591.30	4018.00
591.76	4051.00
592.22	4005.00
592.67	4017.00
593.13	4029.00
593.59	4067.00
594.04	3993.00
594.50	3961.00
594.95	3996.00
595.41	3994.00
595.87	3965.00
596.32	4043.00
596.78	4013.00
597.23	4034.00
597.69	3990.00
598.15	3944.00
598.60	4030.00
599.06	4031.00
599.51	3938.00
599.97	3995.00
600.43	3991.00
600.88	3979.00
601.34	4015.00
601.79	3887.00
602.25	4060.00
602.70	3882.00
603.16	3915.00
603.61	3933.00
604.07	3839.00
604.53	3999.00
604.98	3936.00
605.44	3946.00
605.89	3918.00
606.35	3866.00
606.80	3917.00
607.26	3885.00
607.71	3878.00
608.17	3895.00
608.62	3838.00
609.08	3970.00
609.53	3873.00
609.99	3793.00
610.44	3818.00
610.90	3857.00
611.35	3811.00
611.81	3891.00
612.26	3796.00
612.72	3801.00
613.17	3866.00
613.63	3707.00
614.08	3665.00
614.54	3700.00
614.99	3725.00
615.45	3750.00
615.90	3714.00
616.36	3690.00
616.81	3703.00
617.27	3688.00
617.72	3738.00
618.18	3670.00
618.63	3694.00
619.09	3688.00
619.54	3715.00
619.99	3700.00
620.45	3715.00
620.90	3745.00
621.36	3678.00
621.81	3643.00
622.27	3743.00
622.72	3668.00
623.18	3583.00
623.63	3596.00
624.08	3662.00
624.54	3573.00
624.99	3578.00
625.45	3624.00
625.90	3536.00
626.35	3658.00
626.81	3607.00
627.26	3573.00
627.72	3634.00
628.17	3614.00
628.62	3563.00
629.08	3581.00
629.53	3579.00
629.99	3556.00
630.44	3594.00
630.89	3618.00
631.35	3612.00
631.80	3592.00
632.26	3601.00
632.71	3572.00
633.16	3558.00
633.62	3510.00
634.07	3555.00
634.52	3598.00
634.98	3556.00
635.43	3520.00
635.88	3533.00
636.34	3566.00
636.79	3544.00
637.24	3547.00
637.70	3589.00
638.15	3560.00
638.60	3513.00
639.06	3532.00
639.51	3431.00
639.96	3435.00
640.42	3498.00
640.87	3520.00
641.32	3426.00
641.78	3421.00
642.23	3416.00
642.68	3394.00
643.14	3434.00
643.59	3454.00
644.04	3388.00
644.49	3362.00
644.95	3377.00
645.40	3324.00
645.85	3389.00
646.31	3320.00
646.76	3379.00
647.21	3339.00
647.66	3328.00
648.12	3352.00
648.57	3274.00
649.02	3336.00
649.47	3319.00
649.93	3468.00
650.38	3283.00
650.83	3269.00
651.28	3283.00
651.74	3263.00
652.19	3229.00
652.64	3260.00
653.09	3273.00
653.55	3268.00
654.00	3259.00
654.45	3258.00
654.90	3251.00
655.35	3212.00
655.81	3274.00
656.26	3209.00
656.71	3207.00
657.16	3241.00
657.62	3255.00
658.07	3206.00
658.52	3271.00
658.97	3228.00
659.42	3402.00
659.88	3193.00
660.33	3265.00
660.78	3202.00
661.23	3153.00
661.68	3205.00
662.13	3159.00
662.59	3115.00
663.04	3196.00
663.49	3159.00
663.94	3174.00
664.39	3158.00
664.84	3131.00
665.30	3168.00
665.75	3149.00
666.20	3133.00
666.65	3126.00
667.10	3255.00
667.55	3159.00
668.00	3087.00
668.46	3163.00
668.91	3107.00
669.36	3185.00
669.81	3045.00
670.26	3127.00
670.71	3162.00
671.16	3104.00
671.61	3193.00
672.06	3205.00
672.52	3090.00
672.97	3083.00
673.42	3112.00
673.87	3225.00
674.32	3105.00
674.77	3138.00
675.22	3003.00
675.67	3056.00
676.12	3135.00
676.57	3088.00
677.02	3106.00
677.47	3137.00
677.93	3218.00
678.38	3078.00
678.83	3091.00
679.28	3133.00
679.73	3104.00
680.18	3082.00
680.63	3103.00
681.08	3035.00
681.53	3083.00
681.98	3071.00
682.43	3127.00
682.88	3134.00
683.33	3166.00
683.78	3129.00
684.23	3199.00
684.68	3141.00
685.13	3168.00
685.58	3210.00
686.03	3155.00
686.48	3138.00
686.93	3151.00
687.38	3130.00
687.83	3194.00
688.28	3242.00
688.73	3367.00
689.18	3284.00
689.63	3214.00
690.08	3294.00
690.53	3314.00
690.98	3343.00
691.43	3371.00
691.88	3387.00
692.33	3462.00
692.78	3496.00
693.23	3597.00
693.68	3626.00
694.13	3653.00
694.58	3686.00
695.03	3921.00
695.48	3852.00
695.93	3893.00
696.38	4006.00
696.83	3993.00
697.28	4084.00
697.72	4167.00
698.17	4140.00
698.62	4249.00
699.07	4313.00
699.52	4330.00
699.97	4464.00
700.42	4499.00
700.87	4626.00
701.32	4802.00
701.77	4645.00
702.22	4780.00
702.67	4809.00
703.11	4898.00
703.56	5012.00
704.01	5036.00
704.46	5184.00
704.91	5293.00
705.36	5341.00
705.81	5391.00
706.26	5351.00
706.70	5499.00
707.15	5574.00
707.60	5649.00
708.05	5790.00
708.50	5870.00
708.95	5893.00
709.40	5990.00
709.84	6019.00
710.29	6099.00
710.74	6166.00
711.19	6222.00
711.64	6280.00
712.09	6458.00
712.53	6410.00
712.98	6628.00
713.43	6545.00
713.88	6572.00
714.33	6632.00
714.78	6723.00
715.22	6709.00
715.67	6797.00
716.12	6752.00
716.57	6613.00
717.02	6474.00
717.46	6363.00
717.91	6391.00
718.36	6377.00
718.81	6295.00
719.26	6266.00
719.70	6477.00
720.15	6470.00
720.60	6747.00
721.05	7076.00
721.49	7236.00
721.94	7464.00
722.39	7425.00
722.84	7408.00
723.28	7116.00
723.73	7154.00
724.18	7110.00
724.63	7282.00
725.07	7279.00
725.52	7408.00
725.97	7498.00
726.42	7532.00
726.86	7822.00
727.31	7598.00
727.76	7708.00
728.21	7882.00
728.65	7861.00
729.10	7826.00
729.55	7971.00
729.99	8110.00
730.44	8116.00
730.89	8272.00
731.33	8443.00
731.78	8562.00
732.23	8712.00
732.68	8932.00
733.12	9074.00
733.57	9186.00
734.02	9295.00
734.46	9437.00
734.91	9410.00
735.36	9497.00
735.80	9655.00
736.25	9645.00
736.70	9656.00
737.14	9857.00
737.59	9970.00
738.04	9851.00
738.48	9738.00
738.93	9784.00
739.37	10062.00
739.82	10159.00
740.27	10194.00
740.71	10183.00
741.16	10242.00
741.61	10345.00
742.05	10282.00
742.50	10387.00
742.94	10404.00
743.39	10559.00
743.84	10475.00
744.28	10477.00
744.73	10697.00
745.18	10636.00
745.62	10742.00
746.07	10757.00
746.51	10528.00
746.96	10670.00
747.40	10537.00
747.85	10734.00
748.30	10619.00
748.74	10598.00
749.19	10657.00
749.63	10826.00
750.08	10776.00
750.52	10639.00
750.97	10618.00
751.42	10748.00
751.86	10656.00
752.31	10705.00
752.75	10658.00
753.20	10654.00
753.64	10731.00
754.09	10680.00
754.53	10687.00
754.98	10767.00
755.42	10622.00
755.87	10828.00
756.31	10687.00
756.76	10481.00
757.20	10638.00
757.65	10538.00
758.09	10330.00
758.54	10166.00
758.98	9418.00
759.43	7859.00
759.87	6287.00
760.32	5262.00
760.76	5070.00
761.21	5637.00
761.65	6539.00
762.10	6729.00
762.54	6589.00
762.99	6377.00
763.43	6431.00
763.88	6648.00
764.32	7098.00
764.77	7473.00
765.21	7965.00
765.66	8171.00
766.10	8614.00
766.54	8904.00
766.99	9250.00
767.43	9637.00
767.88	9904.00
768.32	10038.00
768.77	10159.00
769.21	10278.00
769.66	10299.00
770.10	10505.00
770.54	10470.00
770.99	10425.00
771.43	10502.00
771.88	10442.00
772.32	10495.00
772.76	10461.00
773.21	10453.00
773.65	10402.00
774.10	10397.00
774.54	10417.00
774.98	10318.00
775.43	10529.00
775.87	10595.00
776.31	10600.00
776.76	10563.00
777.20	10459.00
777.65	10444.00
778.09	10432.00
778.53	10403.00
778.98	10343.00
779.42	10500.00
779.86	10376.00
780.31	10368.00
780.75	10412.00
781.19	10488.00
781.64	10332.00
782.08	10502.00
782.52	10431.00
782.97	10278.00
783.41	10211.00
783.85	10267.00
784.30	10192.00
784.74	10190.00
785.18	10052.00
785.63	10082.00
786.07	10161.00
786.51	10178.00
786.95	10135.00
787.40	10003.00
787.84	10091.00
788.28	9940.00
788.73	9981.00
789.17	9798.00
789.61	9707.00
790.05	9761.00
790.50	9727.00
790.94	9694.00
791.38	9788.00
791.82	9586.00
792.27	9674.00
792.71	9687.00
793.15	9823.00
793.59	9749.00
794.04	9729.00
794.48	9612.00
794.92	9577.00
795.36	9555.00
795.81	9401.00
796.25	9358.00
796.69	9510.00
797.13	9506.00
797.57	9564.00
798.02	9639.00
798.46	9728.00
798.90	9679.00
799.34	9485.00
799.79	9504.00
800.23	9351.00
800.67	9258.00
801.11	9296.00
801.55	9190.00
801.99	9256.00
802.44	9255.00
802.88	9334.00
803.32	9393.00
803.76	9412.00
804.20	9384.00
804.64	9370.00
805.09	9386.00
805.53	9428.00
805.97	9357.00
806.41	9263.00
806.85	9202.00
807.29	9064.00
807.74	9095.00
808.18	9070.00
808.62	9055.00
809.06	9032.00
809.50	9062.00
809.94	9038.00
810.38	9013.00
810.82	9184.00
811.27	9119.00
811.71	8821.00
812.15	8731.00
812.59	8533.00
813.03	8495.00
813.47	8216.00
813.91	8002.00
814.35	7931.00
814.79	7956.00
815.23	7855.00
815.67	7750.00
816.12	7839.00
816.56	7661.00
817.00	7926.00
817.44	7752.00
817.88	7826.00
818.32	7692.00
818.76	7830.00
819.20	7844.00
819.64	7791.00
820.08	7963.00
820.52	8073.00
820.96	8260.00
821.40	8158.00
821.84	7987.00
822.28	7596.00
822.72	7489.00
823.16	7463.00
823.60	7665.00
824.04	8188.00
824.48	8304.00
824.92	8274.00
825.36	8213.00
825.80	8082.00
826.24	8139.00
826.68	8008.00
827.12	7975.00
827.56	7961.00
828.00	7914.00
828.44	7931.00
828.88	8034.00
829.32	8078.00
829.76	8136.00
830.20	8264.00
830.64	8156.00
831.08	8241.00
831.52	8017.00
831.96	7908.00
832.40	7753.00
832.84	7941.00
833.28	7926.00
833.72	8082.00
834.16	8171.00
834.60	8372.00
835.04	8426.00
835.48	8512.00
835.91	8456.00
836.35	8432.00
836.79	8440.00
837.23	8414.00
837.67	8226.00
838.11	8186.00
838.55	8199.00
838.99	8299.00
839.43	8430.00
839.87	8430.00
840.30	8527.00
840.74	8643.00
841.18	8555.00
841.62	8588.00
842.06	8604.00
842.50	8613.00
842.94	8570.00
843.38	8383.00
843.81	8392.00
844.25	8270.00
844.69	8254.00
845.13	8276.00
845.57	8247.00
846.01	8373.00
846.45	8368.00
846.88	8448.00
847.32	8515.00
847.76	8521.00
848.20	8525.00
848.64	8543.00
849.08	8439.00
849.51	8389.00
849.95	8211.00
850.39	8156.00
850.83	8294.00
851.27	8225.00
851.70	8230.00
852.14	8044.00
852.58	8043.00
853.02	7914.00
853.46	7699.00
853.89	7676.00
854.33	7638.00
854.77	7786.00
855.21	8156.00
855.65	8524.00
856.08	8538.00
856.52	8493.00
856.96	8494.00
857.40	8318.00
857.83	8118.00
858.27	8233.00
858.71	7939.00
859.15	8105.00
859.58	8076.00
860.02	8111.00
860.46	8227.00
860.89	8434.00
861.33	8387.00
861.77	8442.00
862.21	8498.00
862.64	8423.00
863.08	8554.00
863.52	8475.00
863.95	8284.00
864.39	8153.00
864.83	7939.00
865.27	7718.00
865.70	7647.00
866.14	7547.00
866.58	7498.00
867.01	7823.00
867.45	8085.00
867.89	8193.00
868.32	8222.00
868.76	8407.00
869.20	8377.00
869.63	8363.00
870.07	8327.00
870.51	8068.00
870.94	7941.00
871.38	7902.00
871.82	7734.00
872.25	7767.00
872.69	7800.00
873.13	7834.00
873.56	7982.00
874.00	8008.00
874.43	7982.00
874.87	8063.00
875.31	8224.00
875.74	8104.00
876.18	8286.00
876.61	8177.00
877.05	8137.00
877.49	7999.00
877.92	7967.00
878.36	7830.00
878.79	7788.00
879.23	7761.00
879.67	7521.00
880.10	7542.00
880.54	7601.00
880.97	7763.00
881.41	7938.00
881.84	7953.00
882.28	8127.00
882.72	8198.00
883.15	8209.00
883.59	8223.00
884.02	8251.00
884.46	8175.00
884.89	7969.00
885.33	7862.00
885.76	7654.00
886.20	7607.00
886.63	7659.00
887.07	7410.00
887.50	7519.00
887.94	7524.00
888.37	7671.00
888.81	7810.00
889.24	7668.00
889.68	7899.00
890.11	7891.00
890.55	8001.00
890.98	7981.00
891.42	7995.00
891.85	7893.00
892.29	7818.00
892.72	7669.00
893.16	7512.00
893.59	7408.00
894.03	7187.00
894.46	7090.00
894.90	6953.00
895.33	6746.00
895.77	6797.00
896.20	6664.00
896.63	6716.00
897.07	6684.00
897.50	6657.00
897.94	6704.00
898.37	6919.00
898.81	6613.00
899.24	6507.00
899.68	6775.00
900.11	6725.00
900.54	6527.00
900.98	6475.00
901.41	6507.00
901.85	6571.00
902.28	6535.00
902.71	6559.00
903.15	6820.00
903.58	6896.00
904.02	6891.00
904.45	6881.00
904.88	6885.00
905.32	6749.00
905.75	6816.00
906.18	6628.00
906.62	6743.00
907.05	6595.00
907.48	6560.00
907.92	6542.00
908.35	6545.00
908.79	6405.00
909.22	6412.00
909.65	6369.00
910.09	6353.00
910.52	6349.00
910.95	6262.00
911.38	6354.00
911.82	6196.00
912.25	6235.00
912.68	6361.00
913.12	6382.00
913.55	6330.00
913.98	6412.00
914.42	6614.00
914.85	6675.00
915.28	6497.00
915.72	6452.00
916.15	6339.00
916.58	6404.00
917.01	6245.00
917.45	6148.00
917.88	6262.00
918.31	6367.00
918.74	6475.00
919.18	6626.00
919.61	6620.00
920.04	6700.00
920.47	6728.00
920.91	6752.00
921.34	6721.00
921.77	6666.00
922.20	6862.00
922.64	6845.00
923.07	6778.00
923.50	6662.00
923.93	6603.00
924.37	6521.00
924.80	6439.00
925.23	6459.00
925.66	6356.00
926.09	6075.00
926.53	6058.00
926.96	5912.00
927.39	5826.00
927.82	5591.00
928.25	5430.00
928.69	5436.00
929.12	5376.00
929.55	5187.00
929.98	5195.00
930.41	4945.00
930.84	4739.00
931.28	4580.00
931.71	4504.00
932.14	4256.00
932.57	4270.00
933.00	4090.00
933.43	4053.00
933.86	3960.00
934.30	3826.00
934.73	4033.00
935.16	3958.00
935.59	3863.00
936.02	3990.00
936.45	3965.00
936.88	3906.00
937.31	4062.00
937.75	4080.00
938.18	4246.00
938.61	4284.00
939.04	4385.00
939.47	4355.00
939.90	4268.00
940.33	4207.00
940.76	4020.00
941.19	4012.00
941.62	3943.00
942.05	3939.00
942.48	3808.00
942.91	3719.00
943.35	3845.00
943.78	3811.00
944.21	3763.00
944.64	3856.00
945.07	3927.00
945.50	3878.00
945.93	3911.00
946.36	3988.00
946.79	3996.00
947.22	4051.00
947.65	4061.00
948.08	3960.00
948.51	4025.00
948.94	4116.00
949.37	4142.00
949.80	4013.00
950.23	3981.00
950.66	4042.00
951.09	4092.00
951.52	3992.00
951.95	4094.00
952.38	4082.00
952.81	4218.00
953.24	4271.00
953.67	4293.00
954.10	4214.00
954.53	4294.00
954.96	4276.00
955.39	4395.00
955.82	4472.00
956.25	4432.00
956.68	4466.00
957.11	4431.00
957.53	4393.00
957.96	4426.00
958.39	4310.00
958.82	4238.00
959.25	4308.00
959.68	4386.00
960.11	4503.00
960.54	4525.00
960.97	4659.00
961.40	4678.00
961.83	4715.00
962.26	4633.00
962.68	4887.00
963.11	4891.00
963.54	4918.00
963.97	4934.00
964.40	4862.00
964.83	5031.00
965.26	5020.00
965.69	4965.00
966.11	4954.00
966.54	4897.00
966.97	5053.00
967.40	5132.00
967.83	5300.00
968.26	5144.00
968.69	5211.00
969.11	5187.00
969.54	5142.00
969.97	5158.00
970.40	5276.00
970.83	5283.00
971.26	5301.00
971.68	5299.00
972.11	5212.00
972.54	5289.00
972.97	5329.00
973.40	5256.00
973.82	5261.00
974.25	5236.00
974.68	5232.00
975.11	5136.00
975.54	5076.00
975.96	5119.00
976.39	4997.00
976.82	5172.00
977.25	5050.00
977.67	5058.00
978.10	5047.00
978.53	5146.00
978.96	5247.00
979.38	5261.00
979.81	5274.00
980.24	5460.00
980.67	5487.00
981.09	5490.00
981.52	5490.00
981.95	5428.00
982.38	5530.00
982.80	5498.00
983.23	5678.00
983.66	5683.00
984.08	5515.00
984.51	5465.00
984.94	5523.00
985.37	5522.00
985.79	5411.00
986.22	5308.00
986.65	5370.00
987.07	5299.00
987.50	5321.00
987.93	5292.00
988.35	5294.00
988.78	5324.00
989.21	5337.00
989.63	5466.00
990.06	5486.00
990.49	5511.00
990.91	5569.00
991.34	5573.00
991.77	5524.00
992.19	5567.00
992.62	5560.00
993.05	5501.00
993.47	5552.00
993.90	5528.00
994.32	5428.00
994.75	5411.00
995.18	5276.00
995.60	5266.00
996.03	5186.00
996.45	5265.00
996.88	5277.00
997.31	5178.00
997.73	5194.00
998.16	5206.00
998.58	5326.00
999.01	5307.00
999.44	5268.00
999.86	5378.00
1000.29	5313.00
1000.71	5320.00
1001.14	5371.00
1001.56	5379.00
1001.99	5376.00
1002.41	5292.00
1002.84	5267.00
1003.27	5140.00
1003.69	5120.00
1004.12	5082.00
1004.54	5097.00
1004.97	4973.00
1005.39	4969.00
1005.82	4910.00
1006.24	4930.00
1006.67	4932.00
1007.09	4849.00
1007.52	4932.00
1007.94	4942.00
1008.37	5110.00
1008.79	4972.00
1009.22	4999.00
1009.64	4967.00
1010.07	4959.00
1010.49	5065.00
1010.92	4993.00
1011.34	4993.00
1011.77	4963.00
1012.19	4990.00
1012.62	4954.00
1013.04	4885.00
1013.46	4928.00
1013.89	4767.00
1014.31	4814.00
1014.74	4723.00
1015.16	4753.00
1015.59	4696.00
1016.01	4758.00
1016.44	4693.00
1016.86	5684.00
1017.28	4694.00
1017.71	4670.00
1018.13	4886.00
1018.56	4906.00
1018.98	4860.00
1019.40	4883.00
1019.83	4862.00
1020.25	4870.00
1020.68	4886.00
1021.10	4939.00
1021.52	4908.00
1021.95	5044.00
1022.37	4942.00
1022.79	4973.00
1023.22	4884.00
1023.64	4901.00
1024.07	4791.00
1024.49	4873.00
1024.91	4745.00
1025.34	4687.00
1025.76	4859.00
1026.18	4656.00
1026.61	4725.00
1027.03	4682.00
1027.45	4706.00
1027.88	4707.00
1028.30	4825.00
1028.72	4729.00
1029.15	4702.00
1029.57	4752.00
1029.99	4859.00
1030.41	4703.00
1030.84	4769.00
1031.26	4768.00
1031.68	4734.00
1032.11	4772.00
1032.53	4670.00
1032.95	4660.00
1033.37	4644.00
1033.80	4596.00
1034.22	4524.00
1034.64	4603.00
1035.06	4460.00
1035.49	4465.00
1035.91	4389.00
1036.33	4379.00
1036.75	4416.00
1037.18	4456.00
1037.60	4380.00
1038.02	4391.00
1038.44	4399.00
1038.87	4360.00
1039.29	4386.00
1039.71	4386.00
1040.13	4411.00
1040.55	4462.00
1040.98	4424.00
1041.40	4484.00
1041.82	4383.00
1042.24	4382.00
1042.66	4328.00
1043.09	4254.00
1043.51	4252.00
1043.93	4250.00
1044.35	4165.00
1044.77	4218.00
1045.20	4218.00
1045.62	4080.00
1046.04	4155.00
1046.46	4161.00
1046.88	4030.00
1047.30	4110.00
1047.72	4110.00
1048.15	4117.00
1048.57	4024.00
1048.99	4057.00
1049.41	4099.00
1049.83	4111.00
1050.25	4128.00
1050.67	4115.00
1051.09	4050.00
1051.52	4057.00
1051.94	3953.00
1052.36	4033.00
1052.78	3927.00
1053.20	4046.00
1053.62	3986.00
1054.04	3972.00
1054.46	3990.00
1054.88	4017.00
1055.30	3986.00
1055.72	3935.00
1056.14	3895.00
1056.57	4034.00
1056.99	3783.00
1057.41	3860.00
1057.83	3894.00
1058.25	3806.00
1058.67	3831.00
1059.09	3788.00
1059.51	3815.00
1059.93	3787.00
1060.35	3734.00
1060.77	3761.00
1061.19	3818.00
1061.61	3746.00
1062.03	3726.00
1062.45	3708.00
1062.87	3790.00
1063.29	3756.00
1063.71	3703.00
1064.13	3676.00
1064.55	3674.00
1064.97	3704.00
1065.39	3707.00
1065.81	3680.00
1066.23	3665.00
1066.65	3647.00
1067.07	3707.00
1067.49	3688.00
1067.91	3599.00
1068.33	3567.00
1068.75	3638.00
1069.17	3621.00
1069.59	3596.00
1070.00	3566.00
1070.42	3556.00
1070.84	3534.00
1071.26	3502.00
1071.68	3499.00
1072.10	3583.00
1072.52	3556.00
1072.94	3520.00
1073.36	3514.00
1073.78	3509.00
1074.20	3507.00
1074.62	3545.00
1075.03	3463.00
1075.45	3498.00
1075.87	3555.00
1076.29	3536.00
1076.71	3500.00
1077.13	3538.00
1077.55	3459.00
1077.97	3513.00
1078.38	3459.00
1078.80	3439.00
1079.22	3451.00
1079.64	3456.00
1080.06	3428.00
1080.48	3441.00
1080.89	3398.00
1081.31	3408.00
1081.73	3414.00
1082.15	3418.00
1082.57	3422.00
1082.99	3395.00
1083.40	3393.00
1083.82	3403.00
1084.24	3345.00
1084.66	3298.00
1085.08	3336.00
1085.49	3336.00
1085.91	3390.00
1086.33	4340.00
1086.75	3369.00
1087.17	3310.00
1087.58	3350.00
1088.00	3329.00
1088.42	3371.00
1088.84	3342.00
1089.25	3291.00
1089.67	3310.00
1090.09	3295.00
1090.51	3272.00
1090.92	3355.00
1091.34	3262.00
1091.76	3288.00
1092.18	3236.00
1092.59	3257.00
1093.01	3241.00
1093.43	3224.00
1093.84	3219.00
1094.26	3191.00
1094.68	3233.00
1095.10	3210.00
1095.51	3205.00
1095.93	3178.00
1096.35	3208.00
1096.76	3222.00
1097.18	3256.00
1097.60	3205.00
1098.01	3166.00
1098.43	3175.00
1098.85	3139.00
1099.26	3163.00
1099.68	3184.00
1100.10	3174.00
1100.51	3129.00
1100.93	3166.00
1101.35	3143.00
1101.76	3125.00
1102.18	3578.00
1102.60	3147.00
1103.01	3068.00
1103.43	3143.00
1103.84	3122.00
1104.26	3100.00
1104.68	3101.00
1105.09	3038.00
1105.51	3078.00
1105.92	3106.00
1106.34	3059.00
1106.76	3122.00
1107.17	3101.00
1107.59	3101.00
1108.00	3020.00
1108.42	3040.00
1108.83	3050.00
1109.25	3075.00
1109.67	2999.00
1110.08	3035.00
1110.50	2988.00
1110.91	3018.00
1111.33	3019.00
1111.74	2995.00
1112.16	3029.00
1112.57	3051.00
1112.99	2996.00
1113.41	3003.00
1113.82	2968.00
1114.24	3037.00
1114.65	2953.00
1115.07	2925.00
1115.48	2880.00
1115.90	2186.00
1116.31	2195.00
1116.73	2200.00
1117.14	2198.00
>>>>>End Processed Spectral Data<<<<<
