SpectraSuite Data File
++++++++++++++++++++++++++++++++++++
Date: Tue May 29 12:59:45 EEST 2018
User: CanSEE
Dark Spectrum Present: No
Reference Spectrum Present: No
Number of Sampled Component Spectra: 1
Spectrometers: MAYP11278
Integration Time (usec): 250000 (MAYP11278)
Spectra Averaged: 1 (MAYP11278)
Boxcar Smoothing: 0 (MAYP11278)
Correct for Electrical Dark: No (MAYP11278)
Strobe/Lamp Enabled: No (MAYP11278)
Correct for Detector Non-linearity: No (MAYP11278)
Correct for Stray Light: No (MAYP11278)
Number of Pixels in Processed Spectrum: 2068
>>>>>Begin Processed Spectral Data<<<<<
187.82	2320.00
188.30	2231.00
188.78	2204.00
189.26	2206.00
189.73	2960.00
190.21	3090.00
190.69	3135.00
191.17	3139.00
191.64	3183.00
192.12	3120.00
192.60	3133.00
193.07	3114.00
193.55	3146.00
194.03	3132.00
194.51	3160.00
194.98	3140.00
195.46	3189.00
195.94	3143.00
196.42	3141.00
196.89	3234.00
197.37	3156.00
197.85	3098.00
198.32	3118.00
198.80	3123.00
199.28	3148.00
199.76	3182.00
200.23	3160.00
200.71	3155.00
201.19	3202.00
201.66	3183.00
202.14	3186.00
202.62	3103.00
203.09	3147.00
203.57	3121.00
204.05	3197.00
204.53	3191.00
205.00	3130.00
205.48	3138.00
205.96	3190.00
206.43	3134.00
206.91	3156.00
207.39	3277.00
207.86	3172.00
208.34	3176.00
208.82	3145.00
209.29	3218.00
209.77	3204.00
210.25	3174.00
210.72	3176.00
211.20	3203.00
211.68	3190.00
212.15	3160.00
212.63	3243.00
213.11	3199.00
213.58	3156.00
214.06	3251.00
214.53	3167.00
215.01	3248.00
215.49	3188.00
215.96	3214.00
216.44	3193.00
216.92	3207.00
217.39	3172.00
217.87	3168.00
218.35	3204.00
218.82	3083.00
219.30	3148.00
219.77	3152.00
220.25	3155.00
220.73	3269.00
221.20	3180.00
221.68	3204.00
222.15	3166.00
222.63	3221.00
223.11	3168.00
223.58	3216.00
224.06	3186.00
224.53	3134.00
225.01	3127.00
225.49	3160.00
225.96	3141.00
226.44	3188.00
226.91	3204.00
227.39	3150.00
227.87	3198.00
228.34	3231.00
228.82	3172.00
229.29	3163.00
229.77	3193.00
230.24	3168.00
230.72	3169.00
231.20	3225.00
231.67	3193.00
232.15	3177.00
232.62	3133.00
233.10	3154.00
233.57	3202.00
234.05	3294.00
234.53	3226.00
235.00	3133.00
235.48	3180.00
235.95	3156.00
236.43	3224.00
236.90	3243.00
237.38	3193.00
237.85	3210.00
238.33	3143.00
238.80	3198.00
239.28	3189.00
239.75	3169.00
240.23	3202.00
240.71	3224.00
241.18	3197.00
241.66	3130.00
242.13	3194.00
242.61	3204.00
243.08	3138.00
243.56	3170.00
244.03	3198.00
244.51	3277.00
244.98	3183.00
245.46	3192.00
245.93	4668.00
246.41	3132.00
246.88	3140.00
247.36	3193.00
247.83	3180.00
248.31	3203.00
248.78	3112.00
249.26	3212.00
249.73	3211.00
250.21	3174.00
250.68	3210.00
251.16	3219.00
251.63	3263.00
252.10	3215.00
252.58	3184.00
253.05	3254.00
253.53	3203.00
254.00	3160.00
254.48	3165.00
254.95	3193.00
255.43	3202.00
255.90	3164.00
256.38	3220.00
256.85	3204.00
257.33	3237.00
257.80	3293.00
258.27	3215.00
258.75	3205.00
259.22	3191.00
259.70	3182.00
260.17	3226.00
260.65	3199.00
261.12	3158.00
261.59	3262.00
262.07	3167.00
262.54	3199.00
263.02	3160.00
263.49	3148.00
263.97	3226.00
264.44	3244.00
264.91	3177.00
265.39	3203.00
265.86	3209.00
266.34	3244.00
266.81	3189.00
267.28	3208.00
267.76	3176.00
268.23	3197.00
268.71	3105.00
269.18	3133.00
269.65	3139.00
270.13	3222.00
270.60	3213.00
271.08	3156.00
271.55	3200.00
272.02	3171.00
272.50	3196.00
272.97	3137.00
273.44	3170.00
273.92	3314.00
274.39	3209.00
274.87	3214.00
275.34	3180.00
275.81	3173.00
276.29	3191.00
276.76	3204.00
277.23	3101.00
277.71	3110.00
278.18	3099.00
278.65	3220.00
279.13	3104.00
279.60	3125.00
280.07	3404.00
280.55	3416.00
281.02	3440.00
281.50	3254.00
281.97	3292.00
282.44	3257.00
282.91	3210.00
283.39	3249.00
283.86	3213.00
284.33	3187.00
284.81	3216.00
285.28	3232.00
285.75	3225.00
286.23	3226.00
286.70	3162.00
287.17	3229.00
287.65	3264.00
288.12	3218.00
288.59	3191.00
289.07	3112.00
289.54	3280.00
290.01	3169.00
290.48	3228.00
290.96	3185.00
291.43	3205.00
291.90	3276.00
292.38	3186.00
292.85	3231.00
293.32	3166.00
293.79	3206.00
294.27	3189.00
294.74	3197.00
295.21	3204.00
295.69	3201.00
296.16	3270.00
296.63	3265.00
297.10	3245.00
297.58	3251.00
298.05	3215.00
298.52	3203.00
298.99	3233.00
299.47	3195.00
299.94	3214.00
300.41	3182.00
300.88	3228.00
301.36	3267.00
301.83	3260.00
302.30	3179.00
302.77	3250.00
303.25	3248.00
303.72	3198.00
304.19	3209.00
304.66	3154.00
305.13	3237.00
305.61	3213.00
306.08	3234.00
306.55	3228.00
307.02	3195.00
307.49	3213.00
307.97	3196.00
308.44	3229.00
308.91	3224.00
309.38	3259.00
309.86	3218.00
310.33	3216.00
310.80	3235.00
311.27	3170.00
311.74	3242.00
312.21	3224.00
312.69	3317.00
313.16	3182.00
313.63	3192.00
314.10	3228.00
314.57	3227.00
315.05	3171.00
315.52	3254.00
315.99	3258.00
316.46	3229.00
316.93	3213.00
317.40	3225.00
317.88	3339.00
318.35	3198.00
318.82	3232.00
319.29	3192.00
319.76	3233.00
320.23	3265.00
320.70	3247.00
321.18	3246.00
321.65	3176.00
322.12	3196.00
322.59	3273.00
323.06	3238.00
323.53	3322.00
324.00	3219.00
324.48	3289.00
324.95	3227.00
325.42	3233.00
325.89	3222.00
326.36	3213.00
326.83	3237.00
327.30	3263.00
327.77	3236.00
328.24	3257.00
328.72	3198.00
329.19	3245.00
329.66	3197.00
330.13	3219.00
330.60	3255.00
331.07	3252.00
331.54	3350.00
332.01	3235.00
332.48	3307.00
332.95	3266.00
333.43	3232.00
333.90	3263.00
334.37	3217.00
334.84	3252.00
335.31	3428.00
335.78	3190.00
336.25	3247.00
336.72	3266.00
337.19	3245.00
337.66	3247.00
338.13	3263.00
338.60	3281.00
339.07	3270.00
339.54	3219.00
340.01	3182.00
340.49	3200.00
340.96	3272.00
341.43	3281.00
341.90	3201.00
342.37	3252.00
342.84	3273.00
343.31	3239.00
343.78	3186.00
344.25	3218.00
344.72	3225.00
345.19	3241.00
345.66	3280.00
346.13	3217.00
346.60	3215.00
347.07	3312.00
347.54	3208.00
348.01	3265.00
348.48	3229.00
348.95	3215.00
349.42	3258.00
349.89	3285.00
350.36	3209.00
350.83	3170.00
351.30	3261.00
351.77	3314.00
352.24	3271.00
352.71	3234.00
353.18	3213.00
353.65	3244.00
354.12	3282.00
354.59	3258.00
355.06	3264.00
355.53	3295.00
356.00	3207.00
356.47	3320.00
356.94	3206.00
357.41	3378.00
357.88	3257.00
358.35	3231.00
358.82	3248.00
359.28	3249.00
359.75	3247.00
360.22	3255.00
360.69	3307.00
361.16	3262.00
361.63	3214.00
362.10	3243.00
362.57	3192.00
363.04	3254.00
363.51	3329.00
363.98	3271.00
364.45	3205.00
364.92	3249.00
365.39	3282.00
365.86	3187.00
366.32	3227.00
366.79	3215.00
367.26	4112.00
367.73	3252.00
368.20	3230.00
368.67	3278.00
369.14	3194.00
369.61	3260.00
370.08	3244.00
370.55	3224.00
371.02	3709.00
371.48	3234.00
371.95	3210.00
372.42	3198.00
372.89	3190.00
373.36	3276.00
373.83	3228.00
374.30	3228.00
374.77	3253.00
375.23	3187.00
375.70	3296.00
376.17	3251.00
376.64	3179.00
377.11	3227.00
377.58	3229.00
378.05	3242.00
378.51	3245.00
378.98	3251.00
379.45	3197.00
379.92	3249.00
380.39	3337.00
380.86	3242.00
381.33	3295.00
381.79	3305.00
382.26	3178.00
382.73	3265.00
383.20	3196.00
383.67	3268.00
384.14	3277.00
384.60	3455.00
385.07	3231.00
385.54	3256.00
386.01	3269.00
386.48	3314.00
386.94	3212.00
387.41	3188.00
387.88	3280.00
388.35	3240.00
388.82	3275.00
389.28	3229.00
389.75	3259.00
390.22	3229.00
390.69	3282.00
391.16	3261.00
391.62	3242.00
392.09	3248.00
392.56	3228.00
393.03	3276.00
393.50	3362.00
393.96	3231.00
394.43	3309.00
394.90	3261.00
395.37	3295.00
395.83	3436.00
396.30	3215.00
396.77	3288.00
397.24	3309.00
397.70	3228.00
398.17	3254.00
398.64	3269.00
399.11	3281.00
399.57	3309.00
400.04	3252.00
400.51	3270.00
400.98	3278.00
401.44	3327.00
401.91	3277.00
402.38	3306.00
402.84	3250.00
403.31	3335.00
403.78	3293.00
404.25	3330.00
404.71	3354.00
405.18	3323.00
405.65	3275.00
406.12	3314.00
406.58	3309.00
407.05	3373.00
407.52	3320.00
407.98	3905.00
408.45	3329.00
408.92	3296.00
409.38	3330.00
409.85	3255.00
410.32	3307.00
410.78	3287.00
411.25	3350.00
411.72	3276.00
412.18	3271.00
412.65	3301.00
413.12	3312.00
413.59	3294.00
414.05	3329.00
414.52	3350.00
414.98	3305.00
415.45	3387.00
415.92	3314.00
416.38	3304.00
416.85	3397.00
417.32	3345.00
417.78	3317.00
418.25	3328.00
418.72	3318.00
419.18	3338.00
419.65	3305.00
420.12	3370.00
420.58	3265.00
421.05	3305.00
421.51	3302.00
421.98	3331.00
422.45	3288.00
422.91	3341.00
423.38	3346.00
423.85	3363.00
424.31	3302.00
424.78	3346.00
425.24	3355.00
425.71	3385.00
426.18	3319.00
426.64	3339.00
427.11	3351.00
427.57	3337.00
428.04	3285.00
428.51	3348.00
428.97	3334.00
429.44	3274.00
429.90	3336.00
430.37	3399.00
430.83	3271.00
431.30	3302.00
431.77	3377.00
432.23	3394.00
432.70	3316.00
433.16	3299.00
433.63	3347.00
434.09	3314.00
434.56	3355.00
435.03	3285.00
435.49	3368.00
435.96	3344.00
436.42	3268.00
436.89	3349.00
437.35	3348.00
437.82	3320.00
438.28	3279.00
438.75	3291.00
439.21	3469.00
439.68	3329.00
440.14	3387.00
440.61	3356.00
441.07	3324.00
441.54	3341.00
442.00	3407.00
442.47	3322.00
442.94	3314.00
443.40	3355.00
443.87	3283.00
444.33	3424.00
444.80	3360.00
445.26	3342.00
445.73	3382.00
446.19	3332.00
446.65	3373.00
447.12	3314.00
447.58	3320.00
448.05	3325.00
448.51	3377.00
448.98	3369.00
449.44	3362.00
449.91	3325.00
450.37	3355.00
450.84	3376.00
451.30	3391.00
451.77	3367.00
452.23	3309.00
452.70	3430.00
453.16	3359.00
453.62	3373.00
454.09	3365.00
454.55	3408.00
455.02	3328.00
455.48	3358.00
455.95	3403.00
456.41	3343.00
456.88	3411.00
457.34	3372.00
457.80	3369.00
458.27	3293.00
458.73	3334.00
459.20	3329.00
459.66	3390.00
460.13	3310.00
460.59	3291.00
461.05	3338.00
461.52	3359.00
461.98	3279.00
462.45	3298.00
462.91	3363.00
463.37	3334.00
463.84	3340.00
464.30	3302.00
464.76	3264.00
465.23	3272.00
465.69	3287.00
466.16	3278.00
466.62	3301.00
467.08	3233.00
467.55	3252.00
468.01	3263.00
468.48	3244.00
468.94	3257.00
469.40	3213.00
469.87	3261.00
470.33	3269.00
470.79	3235.00
471.26	3248.00
471.72	3220.00
472.18	3223.00
472.65	3177.00
473.11	3332.00
473.57	3256.00
474.04	3218.00
474.50	3254.00
474.96	3214.00
475.43	3237.00
475.89	3243.00
476.35	3231.00
476.82	3258.00
477.28	3215.00
477.74	3286.00
478.21	3231.00
478.67	3256.00
479.13	3208.00
479.59	3330.00
480.06	3261.00
480.52	3243.00
480.98	3201.00
481.45	3235.00
481.91	3227.00
482.37	3186.00
482.84	3203.00
483.30	3178.00
483.76	3235.00
484.22	3304.00
484.69	3239.00
485.15	3195.00
485.61	3117.00
486.07	3186.00
486.54	3140.00
487.00	3223.00
487.46	3167.00
487.92	3171.00
488.39	3226.00
488.85	3235.00
489.31	3238.00
489.77	3267.00
490.24	3168.00
490.70	3205.00
491.16	3175.00
491.62	3240.00
492.09	3161.00
492.55	3261.00
493.01	3250.00
493.47	3246.00
493.94	3239.00
494.40	3230.00
494.86	3267.00
495.32	3238.00
495.78	3296.00
496.25	3241.00
496.71	3269.00
497.17	3348.00
497.63	3327.00
498.09	3231.00
498.56	3278.00
499.02	3299.00
499.48	3368.00
499.94	3298.00
500.40	3309.00
500.87	3268.00
501.33	3332.00
501.79	3345.00
502.25	3326.00
502.71	3604.00
503.17	3361.00
503.64	3387.00
504.10	3371.00
504.56	3422.00
505.02	3451.00
505.48	3438.00
505.94	3498.00
506.40	3552.00
506.87	3490.00
507.33	3544.00
507.79	3511.00
508.25	3524.00
508.71	3531.00
509.17	3552.00
509.63	3583.00
510.10	3645.00
510.56	3610.00
511.02	3739.00
511.48	3729.00
511.94	3695.00
512.40	3700.00
512.86	3713.00
513.32	3828.00
513.78	3723.00
514.25	3887.00
514.71	4350.00
515.17	3835.00
515.63	3952.00
516.09	3953.00
516.55	3906.00
517.01	3992.00
517.47	4039.00
517.93	4023.00
518.39	4155.00
518.85	4121.00
519.32	4134.00
519.78	4205.00
520.24	4287.00
520.70	4335.00
521.16	4330.00
521.62	4416.00
522.08	4446.00
522.54	4469.00
523.00	4499.00
523.46	4597.00
523.92	4637.00
524.38	4749.00
524.84	4691.00
525.30	4743.00
525.76	4750.00
526.22	4709.00
526.68	4635.00
527.14	4715.00
527.60	4761.00
528.06	4922.00
528.52	4938.00
528.98	4959.00
529.44	4932.00
529.90	4984.00
530.36	5073.00
530.82	5054.00
531.28	5148.00
531.74	5083.00
532.20	5056.00
532.66	5003.00
533.12	5156.00
533.58	5141.00
534.04	5086.00
534.50	5133.00
534.96	5185.00
535.42	5289.00
535.88	5233.00
536.34	5196.00
536.80	5114.00
537.26	5214.00
537.72	5243.00
538.18	5286.00
538.64	5307.00
539.10	5223.00
539.56	5390.00
540.02	5104.00
540.48	5179.00
540.94	5142.00
541.40	5195.00
541.86	5246.00
542.32	5234.00
542.78	5214.00
543.24	5324.00
543.69	5241.00
544.15	5435.00
544.61	5272.00
545.07	5323.00
545.53	5279.00
545.99	5261.00
546.45	5344.00
546.91	5323.00
547.37	5315.00
547.83	5227.00
548.29	5327.00
548.74	5319.00
549.20	5249.00
549.66	5390.00
550.12	5357.00
550.58	5344.00
551.04	5389.00
551.50	5318.00
551.96	5396.00
552.42	5392.00
552.87	5308.00
553.33	5324.00
553.79	5340.00
554.25	5343.00
554.71	5395.00
555.17	5345.00
555.63	5398.00
556.08	5278.00
556.54	5298.00
557.00	5268.00
557.46	5288.00
557.92	5313.00
558.38	5137.00
558.83	5140.00
559.29	5150.00
559.75	5139.00
560.21	5119.00
560.67	5206.00
561.13	5148.00
561.58	5092.00
562.04	5069.00
562.50	5065.00
562.96	5126.00
563.42	5126.00
563.87	4973.00
564.33	5040.00
564.79	4993.00
565.25	4987.00
565.71	4918.00
566.16	4916.00
566.62	4863.00
567.08	4923.00
567.54	4878.00
568.00	4886.00
568.45	4780.00
568.91	4758.00
569.37	4775.00
569.83	4786.00
570.28	4647.00
570.74	4631.00
571.20	4642.00
571.66	4615.00
572.11	4623.00
572.57	4627.00
573.03	4631.00
573.49	4559.00
573.94	4607.00
574.40	4570.00
574.86	4544.00
575.32	4449.00
575.77	4454.00
576.23	4399.00
576.69	4498.00
577.15	4424.00
577.60	4431.00
578.06	4359.00
578.52	4398.00
578.97	4359.00
579.43	4303.00
579.89	4398.00
580.34	4327.00
580.80	4340.00
581.26	4339.00
581.72	4299.00
582.17	4298.00
582.63	4251.00
583.09	4305.00
583.54	4297.00
584.00	4293.00
584.46	4293.00
584.91	4254.00
585.37	4316.00
585.83	4196.00
586.28	4194.00
586.74	4233.00
587.20	4161.00
587.65	4193.00
588.11	4124.00
588.57	4055.00
589.02	4027.00
589.48	3946.00
589.94	4043.00
590.39	4115.00
590.85	4029.00
591.30	4068.00
591.76	4139.00
592.22	4047.00
592.67	4059.00
593.13	4043.00
593.59	4097.00
594.04	4096.00
594.50	4001.00
594.95	4087.00
595.41	4007.00
595.87	3999.00
596.32	4072.00
596.78	4065.00
597.23	4136.00
597.69	4041.00
598.15	3961.00
598.60	4004.00
599.06	4102.00
599.51	3977.00
599.97	3999.00
600.43	4049.00
600.88	4029.00
601.34	4067.00
601.79	3916.00
602.25	4075.00
602.70	3939.00
603.16	4038.00
603.61	3942.00
604.07	3887.00
604.53	3990.00
604.98	3973.00
605.44	3985.00
605.89	3966.00
606.35	3876.00
606.80	3973.00
607.26	3924.00
607.71	3899.00
608.17	3896.00
608.62	3901.00
609.08	3977.00
609.53	3878.00
609.99	3869.00
610.44	3837.00
610.90	3895.00
611.35	3812.00
611.81	3938.00
612.26	3840.00
612.72	3773.00
613.17	3914.00
613.63	3751.00
614.08	3732.00
614.54	3736.00
614.99	3743.00
615.45	3714.00
615.90	3712.00
616.36	3672.00
616.81	3703.00
617.27	3738.00
617.72	3736.00
618.18	3716.00
618.63	3730.00
619.09	3671.00
619.54	3748.00
619.99	3694.00
620.45	3714.00
620.90	3761.00
621.36	3651.00
621.81	3715.00
622.27	3719.00
622.72	3669.00
623.18	3639.00
623.63	3635.00
624.08	3683.00
624.54	3598.00
624.99	3679.00
625.45	3641.00
625.90	3634.00
626.35	3645.00
626.81	3627.00
627.26	3611.00
627.72	3645.00
628.17	3626.00
628.62	3559.00
629.08	3617.00
629.53	3612.00
629.99	3563.00
630.44	3616.00
630.89	3656.00
631.35	3670.00
631.80	3621.00
632.26	3660.00
632.71	3572.00
633.16	3613.00
633.62	3557.00
634.07	3614.00
634.52	3593.00
634.98	3593.00
635.43	3584.00
635.88	3569.00
636.34	3602.00
636.79	3558.00
637.24	3489.00
637.70	3628.00
638.15	3586.00
638.60	3518.00
639.06	3508.00
639.51	3468.00
639.96	3496.00
640.42	3504.00
640.87	3554.00
641.32	3432.00
641.78	3470.00
642.23	3475.00
642.68	3444.00
643.14	3432.00
643.59	3483.00
644.04	3450.00
644.49	3356.00
644.95	3407.00
645.40	3340.00
645.85	3400.00
646.31	3379.00
646.76	3417.00
647.21	3378.00
647.66	3342.00
648.12	3358.00
648.57	3293.00
649.02	3363.00
649.47	3325.00
649.93	3498.00
650.38	3289.00
650.83	3296.00
651.28	3271.00
651.74	3303.00
652.19	3278.00
652.64	3285.00
653.09	3281.00
653.55	3254.00
654.00	3296.00
654.45	3307.00
654.90	3277.00
655.35	3216.00
655.81	3280.00
656.26	3179.00
656.71	3195.00
657.16	3265.00
657.62	3277.00
658.07	3235.00
658.52	3262.00
658.97	3242.00
659.42	3386.00
659.88	3206.00
660.33	3287.00
660.78	3184.00
661.23	3194.00
661.68	3219.00
662.13	3188.00
662.59	3175.00
663.04	3182.00
663.49	3185.00
663.94	3163.00
664.39	3179.00
664.84	3150.00
665.30	3182.00
665.75	3107.00
666.20	3165.00
666.65	3144.00
667.10	3222.00
667.55	3195.00
668.00	3120.00
668.46	3171.00
668.91	3115.00
669.36	3227.00
669.81	3085.00
670.26	3134.00
670.71	3172.00
671.16	3115.00
671.61	3207.00
672.06	3208.00
672.52	3129.00
672.97	3101.00
673.42	3194.00
673.87	3224.00
674.32	3126.00
674.77	3144.00
675.22	3064.00
675.67	3097.00
676.12	3105.00
676.57	3101.00
677.02	3128.00
677.47	3113.00
677.93	3203.00
678.38	3082.00
678.83	3131.00
679.28	3153.00
679.73	3126.00
680.18	3108.00
680.63	3137.00
681.08	3115.00
681.53	3031.00
681.98	3135.00
682.43	3124.00
682.88	3188.00
683.33	3158.00
683.78	3163.00
684.23	3217.00
684.68	3178.00
685.13	3224.00
685.58	3175.00
686.03	3171.00
686.48	3139.00
686.93	3170.00
687.38	3184.00
687.83	3205.00
688.28	3217.00
688.73	3377.00
689.18	3297.00
689.63	3234.00
690.08	3302.00
690.53	3340.00
690.98	3341.00
691.43	3409.00
691.88	3433.00
692.33	3495.00
692.78	3478.00
693.23	3588.00
693.68	3618.00
694.13	3652.00
694.58	3713.00
695.03	3943.00
695.48	3850.00
695.93	3950.00
696.38	4010.00
696.83	4081.00
697.28	4092.00
697.72	4140.00
698.17	4130.00
698.62	4207.00
699.07	4315.00
699.52	4355.00
699.97	4406.00
700.42	4489.00
700.87	4618.00
701.32	4732.00
701.77	4638.00
702.22	4764.00
702.67	4760.00
703.11	4855.00
703.56	5005.00
704.01	5038.00
704.46	5099.00
704.91	5244.00
705.36	5274.00
705.81	5350.00
706.26	5361.00
706.70	5435.00
707.15	5497.00
707.60	5543.00
708.05	5643.00
708.50	5717.00
708.95	5750.00
709.40	5806.00
709.84	5849.00
710.29	5913.00
710.74	5968.00
711.19	6074.00
711.64	6163.00
712.09	6206.00
712.53	6263.00
712.98	6430.00
713.43	6388.00
713.88	6429.00
714.33	6464.00
714.78	6473.00
715.22	6492.00
715.67	6578.00
716.12	6481.00
716.57	6379.00
717.02	6226.00
717.46	6162.00
717.91	6204.00
718.36	6177.00
718.81	6020.00
719.26	6043.00
719.70	6107.00
720.15	6218.00
720.60	6385.00
721.05	6829.00
721.49	6928.00
721.94	7081.00
722.39	7136.00
722.84	6956.00
723.28	6849.00
723.73	6869.00
724.18	6790.00
724.63	6995.00
725.07	6901.00
725.52	7072.00
725.97	7202.00
726.42	7201.00
726.86	7417.00
727.31	7328.00
727.76	7326.00
728.21	7474.00
728.65	7492.00
729.10	7437.00
729.55	7516.00
729.99	7706.00
730.44	7758.00
730.89	7808.00
731.33	8026.00
731.78	8047.00
732.23	8309.00
732.68	8337.00
733.12	8523.00
733.57	8671.00
734.02	8766.00
734.46	8811.00
734.91	8959.00
735.36	8901.00
735.80	9085.00
736.25	8923.00
736.70	9077.00
737.14	9245.00
737.59	9306.00
738.04	9175.00
738.48	9351.00
738.93	9388.00
739.37	9265.00
739.82	9508.00
740.27	9545.00
740.71	9457.00
741.16	9556.00
741.61	9561.00
742.05	9568.00
742.50	9761.00
742.94	9752.00
743.39	9783.00
743.84	9754.00
744.28	9785.00
744.73	9941.00
745.18	9901.00
745.62	10040.00
746.07	10123.00
746.51	10000.00
746.96	9898.00
747.40	9941.00
747.85	9993.00
748.30	9996.00
748.74	9883.00
749.19	9987.00
749.63	10102.00
750.08	10025.00
750.52	9983.00
750.97	9953.00
751.42	9880.00
751.86	9989.00
752.31	9993.00
752.75	10021.00
753.20	9933.00
753.64	9987.00
754.09	9996.00
754.53	10012.00
754.98	9880.00
755.42	9949.00
755.87	9977.00
756.31	10002.00
756.76	9884.00
757.20	9927.00
757.65	9795.00
758.09	9680.00
758.54	9424.00
758.98	8797.00
759.43	7396.00
759.87	5956.00
760.32	5016.00
760.76	4883.00
761.21	5404.00
761.65	6202.00
762.10	6407.00
762.54	6193.00
762.99	6001.00
763.43	6086.00
763.88	6257.00
764.32	6614.00
764.77	7042.00
765.21	7378.00
765.66	7685.00
766.10	8034.00
766.54	8365.00
766.99	8719.00
767.43	8963.00
767.88	9104.00
768.32	9320.00
768.77	9430.00
769.21	9646.00
769.66	9546.00
770.10	9737.00
770.54	9769.00
770.99	9711.00
771.43	9738.00
771.88	9768.00
772.32	9761.00
772.76	9675.00
773.21	9733.00
773.65	9678.00
774.10	9536.00
774.54	9659.00
774.98	9768.00
775.43	9775.00
775.87	9855.00
776.31	9879.00
776.76	9828.00
777.20	9766.00
777.65	9839.00
778.09	9745.00
778.53	9609.00
778.98	9730.00
779.42	9737.00
779.86	9720.00
780.31	9511.00
780.75	9722.00
781.19	9649.00
781.64	9731.00
782.08	9657.00
782.52	9689.00
782.97	9620.00
783.41	9524.00
783.85	9463.00
784.30	9406.00
784.74	9408.00
785.18	9349.00
785.63	9379.00
786.07	9437.00
786.51	9473.00
786.95	9472.00
787.40	9321.00
787.84	9384.00
788.28	9292.00
788.73	9365.00
789.17	9147.00
789.61	9075.00
790.05	9064.00
790.50	8989.00
790.94	8997.00
791.38	9084.00
791.82	9034.00
792.27	9105.00
792.71	9042.00
793.15	9306.00
793.59	9044.00
794.04	9061.00
794.48	8888.00
794.92	8973.00
795.36	8857.00
795.81	8808.00
796.25	8730.00
796.69	8763.00
797.13	8838.00
797.57	8869.00
798.02	9047.00
798.46	9041.00
798.90	8971.00
799.34	8921.00
799.79	8902.00
800.23	8759.00
800.67	8635.00
801.11	8677.00
801.55	8615.00
801.99	8514.00
802.44	8681.00
802.88	8761.00
803.32	8708.00
803.76	8733.00
804.20	8761.00
804.64	8770.00
805.09	8775.00
805.53	8768.00
805.97	8685.00
806.41	8645.00
806.85	8629.00
807.29	8448.00
807.74	8530.00
808.18	8480.00
808.62	8495.00
809.06	8433.00
809.50	8459.00
809.94	8447.00
810.38	8450.00
810.82	8514.00
811.27	8509.00
811.71	8312.00
812.15	8184.00
812.59	7952.00
813.03	7887.00
813.47	7731.00
813.91	7534.00
814.35	7465.00
814.79	7408.00
815.23	7417.00
815.67	7299.00
816.12	7236.00
816.56	7270.00
817.00	7380.00
817.44	7327.00
817.88	7389.00
818.32	7294.00
818.76	7321.00
819.20	7258.00
819.64	7277.00
820.08	7481.00
820.52	7442.00
820.96	7651.00
821.40	7567.00
821.84	7487.00
822.28	7108.00
822.72	7046.00
823.16	7028.00
823.60	7177.00
824.04	7580.00
824.48	7792.00
824.92	7729.00
825.36	7650.00
825.80	7647.00
826.24	7480.00
826.68	7531.00
827.12	7551.00
827.56	7435.00
828.00	7448.00
828.44	7451.00
828.88	7564.00
829.32	7635.00
829.76	7547.00
830.20	7718.00
830.64	7585.00
831.08	7678.00
831.52	7462.00
831.96	7407.00
832.40	7249.00
832.84	7404.00
833.28	7392.00
833.72	7552.00
834.16	7619.00
834.60	7790.00
835.04	7869.00
835.48	7976.00
835.91	7813.00
836.35	7872.00
836.79	7837.00
837.23	7769.00
837.67	7702.00
838.11	7714.00
838.55	7740.00
838.99	7718.00
839.43	7814.00
839.87	8020.00
840.30	7932.00
840.74	8069.00
841.18	7965.00
841.62	8148.00
842.06	7942.00
842.50	7963.00
842.94	7856.00
843.38	7878.00
843.81	7741.00
844.25	7695.00
844.69	7660.00
845.13	7738.00
845.57	7704.00
846.01	7786.00
846.45	7826.00
846.88	7874.00
847.32	7958.00
847.76	7989.00
848.20	7973.00
848.64	7956.00
849.08	7797.00
849.51	7884.00
849.95	7705.00
850.39	7573.00
850.83	7750.00
851.27	7689.00
851.70	7632.00
852.14	7612.00
852.58	7502.00
853.02	7316.00
853.46	7117.00
853.89	7222.00
854.33	7286.00
854.77	7319.00
855.21	7706.00
855.65	7900.00
856.08	8047.00
856.52	7975.00
856.96	7933.00
857.40	7765.00
857.83	7660.00
858.27	7677.00
858.71	7493.00
859.15	7563.00
859.58	7517.00
860.02	7736.00
860.46	7731.00
860.89	7810.00
861.33	7912.00
861.77	7980.00
862.21	7944.00
862.64	7926.00
863.08	7918.00
863.52	7881.00
863.95	7650.00
864.39	7653.00
864.83	7443.00
865.27	7193.00
865.70	7150.00
866.14	7073.00
866.58	7140.00
867.01	7245.00
867.45	7505.00
867.89	7661.00
868.32	7666.00
868.76	7784.00
869.20	7873.00
869.63	7797.00
870.07	7790.00
870.51	7499.00
870.94	7498.00
871.38	7413.00
871.82	7323.00
872.25	7303.00
872.69	7267.00
873.13	7318.00
873.56	7416.00
874.00	7488.00
874.43	7562.00
874.87	7576.00
875.31	7632.00
875.74	7625.00
876.18	7673.00
876.61	7676.00
877.05	7625.00
877.49	7558.00
877.92	7418.00
878.36	7345.00
878.79	7248.00
879.23	7323.00
879.67	7104.00
880.10	7106.00
880.54	7123.00
880.97	7143.00
881.41	7348.00
881.84	7398.00
882.28	7469.00
882.72	7633.00
883.15	7673.00
883.59	7640.00
884.02	7681.00
884.46	7554.00
884.89	7564.00
885.33	7420.00
885.76	7236.00
886.20	7083.00
886.63	7129.00
887.07	7002.00
887.50	7025.00
887.94	7099.00
888.37	7184.00
888.81	7315.00
889.24	7202.00
889.68	7440.00
890.11	7350.00
890.55	7495.00
890.98	7478.00
891.42	7430.00
891.85	7457.00
892.29	7327.00
892.72	7198.00
893.16	7000.00
893.59	6910.00
894.03	6788.00
894.46	6721.00
894.90	6452.00
895.33	6339.00
895.77	6268.00
896.20	6314.00
896.63	6245.00
897.07	6331.00
897.50	6292.00
897.94	6345.00
898.37	6479.00
898.81	6239.00
899.24	6152.00
899.68	6372.00
900.11	6429.00
900.54	6168.00
900.98	6062.00
901.41	6130.00
901.85	6208.00
902.28	6103.00
902.71	6163.00
903.15	6400.00
903.58	6489.00
904.02	6493.00
904.45	6489.00
904.88	6495.00
905.32	6400.00
905.75	6493.00
906.18	6366.00
906.62	6399.00
907.05	6224.00
907.48	6189.00
907.92	6196.00
908.35	6194.00
908.79	6044.00
909.22	5980.00
909.65	6004.00
910.09	6017.00
910.52	6073.00
910.95	5862.00
911.38	6035.00
911.82	5850.00
912.25	5938.00
912.68	6061.00
913.12	6043.00
913.55	5994.00
913.98	6126.00
914.42	6209.00
914.85	6286.00
915.28	6139.00
915.72	6081.00
916.15	6007.00
916.58	6018.00
917.01	5896.00
917.45	5881.00
917.88	5967.00
918.31	5954.00
918.74	6131.00
919.18	6248.00
919.61	6239.00
920.04	6286.00
920.47	6337.00
920.91	6314.00
921.34	6272.00
921.77	6299.00
922.20	6304.00
922.64	6398.00
923.07	6420.00
923.50	6351.00
923.93	6195.00
924.37	6213.00
924.80	6038.00
925.23	6080.00
925.66	6002.00
926.09	5742.00
926.53	5766.00
926.96	5563.00
927.39	5550.00
927.82	5306.00
928.25	5169.00
928.69	5221.00
929.12	5017.00
929.55	4986.00
929.98	4859.00
930.41	4683.00
930.84	4628.00
931.28	4351.00
931.71	4289.00
932.14	4166.00
932.57	4135.00
933.00	3978.00
933.43	3915.00
933.86	3914.00
934.30	3782.00
934.73	3952.00
935.16	3833.00
935.59	3792.00
936.02	3822.00
936.45	3791.00
936.88	3760.00
937.31	3974.00
937.75	3993.00
938.18	4086.00
938.61	4186.00
939.04	4232.00
939.47	4213.00
939.90	4137.00
940.33	4078.00
940.76	3948.00
941.19	3923.00
941.62	3836.00
942.05	3806.00
942.48	3735.00
942.91	3633.00
943.35	3699.00
943.78	3752.00
944.21	3706.00
944.64	3780.00
945.07	3856.00
945.50	3770.00
945.93	3836.00
946.36	3913.00
946.79	3933.00
947.22	3980.00
947.65	3947.00
948.08	3855.00
948.51	3910.00
948.94	3941.00
949.37	4037.00
949.80	3942.00
950.23	3872.00
950.66	3951.00
951.09	3955.00
951.52	3890.00
951.95	3953.00
952.38	3923.00
952.81	4143.00
953.24	4086.00
953.67	4167.00
954.10	4126.00
954.53	4207.00
954.96	4158.00
955.39	4199.00
955.82	4298.00
956.25	4294.00
956.68	4334.00
957.11	4264.00
957.53	4307.00
957.96	4254.00
958.39	4190.00
958.82	4176.00
959.25	4212.00
959.68	4234.00
960.11	4316.00
960.54	4374.00
960.97	4398.00
961.40	4616.00
961.83	4512.00
962.26	4482.00
962.68	4700.00
963.11	4739.00
963.54	4689.00
963.97	4807.00
964.40	4729.00
964.83	4818.00
965.26	4776.00
965.69	4787.00
966.11	4761.00
966.54	4757.00
966.97	4885.00
967.40	4983.00
967.83	5099.00
968.26	4949.00
968.69	4890.00
969.11	4966.00
969.54	4921.00
969.97	5029.00
970.40	5099.00
970.83	5062.00
971.26	5056.00
971.68	5084.00
972.11	5050.00
972.54	5092.00
972.97	5097.00
973.40	5027.00
973.82	5046.00
974.25	5035.00
974.68	4939.00
975.11	4910.00
975.54	4863.00
975.96	4877.00
976.39	4850.00
976.82	4926.00
977.25	4874.00
977.67	4862.00
978.10	4884.00
978.53	4897.00
978.96	4997.00
979.38	5016.00
979.81	5013.00
980.24	5177.00
980.67	5226.00
981.09	5263.00
981.52	5308.00
981.95	5247.00
982.38	5355.00
982.80	5247.00
983.23	5382.00
983.66	5370.00
984.08	5250.00
984.51	5230.00
984.94	5233.00
985.37	5219.00
985.79	5178.00
986.22	5148.00
986.65	5052.00
987.07	5014.00
987.50	5111.00
987.93	5085.00
988.35	5117.00
988.78	5143.00
989.21	5164.00
989.63	5164.00
990.06	5235.00
990.49	5255.00
990.91	5379.00
991.34	5263.00
991.77	5303.00
992.19	5319.00
992.62	5306.00
993.05	5244.00
993.47	5257.00
993.90	5317.00
994.32	5221.00
994.75	5134.00
995.18	5005.00
995.60	5004.00
996.03	4978.00
996.45	5076.00
996.88	5062.00
997.31	4920.00
997.73	5013.00
998.16	4936.00
998.58	5072.00
999.01	5025.00
999.44	5076.00
999.86	5097.00
1000.29	5069.00
1000.71	5120.00
1001.14	5162.00
1001.56	5135.00
1001.99	5130.00
1002.41	5048.00
1002.84	5017.00
1003.27	4893.00
1003.69	4891.00
1004.12	4843.00
1004.54	4907.00
1004.97	4827.00
1005.39	4720.00
1005.82	4822.00
1006.24	4774.00
1006.67	4670.00
1007.09	4747.00
1007.52	4722.00
1007.94	4710.00
1008.37	4823.00
1008.79	4851.00
1009.22	4789.00
1009.64	4770.00
1010.07	4779.00
1010.49	4889.00
1010.92	4854.00
1011.34	4790.00
1011.77	4815.00
1012.19	4750.00
1012.62	4726.00
1013.04	4711.00
1013.46	4720.00
1013.89	4573.00
1014.31	4665.00
1014.74	4557.00
1015.16	4532.00
1015.59	4499.00
1016.01	4548.00
1016.44	4546.00
1016.86	5459.00
1017.28	4585.00
1017.71	4544.00
1018.13	4729.00
1018.56	4674.00
1018.98	4647.00
1019.40	4656.00
1019.83	4644.00
1020.25	4616.00
1020.68	4737.00
1021.10	4794.00
1021.52	4735.00
1021.95	4883.00
1022.37	4752.00
1022.79	4716.00
1023.22	4740.00
1023.64	4648.00
1024.07	4683.00
1024.49	4644.00
1024.91	4570.00
1025.34	4547.00
1025.76	4663.00
1026.18	4601.00
1026.61	4544.00
1027.03	4554.00
1027.45	4562.00
1027.88	4563.00
1028.30	4627.00
1028.72	4604.00
1029.15	4543.00
1029.57	4611.00
1029.99	4627.00
1030.41	4583.00
1030.84	4608.00
1031.26	4590.00
1031.68	4510.00
1032.11	4596.00
1032.53	4488.00
1032.95	4476.00
1033.37	4436.00
1033.80	4461.00
1034.22	4350.00
1034.64	4426.00
1035.06	4275.00
1035.49	4243.00
1035.91	4341.00
1036.33	4253.00
1036.75	4281.00
1037.18	4280.00
1037.60	4284.00
1038.02	4288.00
1038.44	4302.00
1038.87	4297.00
1039.29	4254.00
1039.71	4296.00
1040.13	4265.00
1040.55	4304.00
1040.98	4307.00
1041.40	4262.00
1041.82	4272.00
1042.24	4218.00
1042.66	4191.00
1043.09	4163.00
1043.51	4130.00
1043.93	4081.00
1044.35	4047.00
1044.77	4112.00
1045.20	4096.00
1045.62	3963.00
1046.04	4042.00
1046.46	4089.00
1046.88	3986.00
1047.30	4029.00
1047.72	3992.00
1048.15	3999.00
1048.57	3962.00
1048.99	3960.00
1049.41	3978.00
1049.83	3971.00
1050.25	3957.00
1050.67	3989.00
1051.09	3944.00
1051.52	3997.00
1051.94	3856.00
1052.36	3912.00
1052.78	3849.00
1053.20	3912.00
1053.62	3819.00
1054.04	3864.00
1054.46	3854.00
1054.88	3954.00
1055.30	3851.00
1055.72	3847.00
1056.14	3802.00
1056.57	3945.00
1056.99	3740.00
1057.41	3735.00
1057.83	3793.00
1058.25	3752.00
1058.67	3687.00
1059.09	3678.00
1059.51	3706.00
1059.93	3690.00
1060.35	3677.00
1060.77	3713.00
1061.19	3717.00
1061.61	3663.00
1062.03	3665.00
1062.45	3590.00
1062.87	3700.00
1063.29	3640.00
1063.71	3646.00
1064.13	3603.00
1064.55	3563.00
1064.97	3674.00
1065.39	3605.00
1065.81	3614.00
1066.23	3591.00
1066.65	3578.00
1067.07	3679.00
1067.49	3567.00
1067.91	3570.00
1068.33	3483.00
1068.75	3547.00
1069.17	3596.00
1069.59	3523.00
1070.00	3520.00
1070.42	3498.00
1070.84	3507.00
1071.26	3456.00
1071.68	3440.00
1072.10	3506.00
1072.52	3497.00
1072.94	3458.00
1073.36	3472.00
1073.78	3474.00
1074.20	3452.00
1074.62	3479.00
1075.03	3448.00
1075.45	3471.00
1075.87	3507.00
1076.29	3412.00
1076.71	3459.00
1077.13	3461.00
1077.55	3363.00
1077.97	3419.00
1078.38	3413.00
1078.80	3437.00
1079.22	3419.00
1079.64	3402.00
1080.06	3339.00
1080.48	3367.00
1080.89	3380.00
1081.31	3374.00
1081.73	3389.00
1082.15	3324.00
1082.57	3404.00
1082.99	3377.00
1083.40	3276.00
1083.82	3368.00
1084.24	3299.00
1084.66	3325.00
1085.08	3308.00
1085.49	3283.00
1085.91	3334.00
1086.33	4347.00
1086.75	3307.00
1087.17	3295.00
1087.58	3301.00
1088.00	3285.00
1088.42	3369.00
1088.84	3281.00
1089.25	3252.00
1089.67	3272.00
1090.09	3266.00
1090.51	3266.00
1090.92	3309.00
1091.34	3227.00
1091.76	3225.00
1092.18	3223.00
1092.59	3218.00
1093.01	3222.00
1093.43	3227.00
1093.84	3189.00
1094.26	3187.00
1094.68	3229.00
1095.10	3201.00
1095.51	3209.00
1095.93	3175.00
1096.35	3222.00
1096.76	3235.00
1097.18	3233.00
1097.60	3208.00
1098.01	3167.00
1098.43	3113.00
1098.85	3158.00
1099.26	3123.00
1099.68	3148.00
1100.10	3099.00
1100.51	3141.00
1100.93	3118.00
1101.35	3166.00
1101.76	3145.00
1102.18	3527.00
1102.60	3163.00
1103.01	3035.00
1103.43	3135.00
1103.84	3103.00
1104.26	3090.00
1104.68	3101.00
1105.09	3053.00
1105.51	3073.00
1105.92	3133.00
1106.34	3003.00
1106.76	3090.00
1107.17	3071.00
1107.59	3081.00
1108.00	2986.00
1108.42	3067.00
1108.83	2977.00
1109.25	3006.00
1109.67	2992.00
1110.08	3002.00
1110.50	3015.00
1110.91	3001.00
1111.33	2974.00
1111.74	2978.00
1112.16	3003.00
1112.57	3017.00
1112.99	2991.00
1113.41	2947.00
1113.82	2977.00
1114.24	2967.00
1114.65	2969.00
1115.07	2915.00
1115.48	2866.00
1115.90	2182.00
1116.31	2203.00
1116.73	2198.00
1117.14	2205.00
>>>>>End Processed Spectral Data<<<<<
