SpectraSuite Data File
++++++++++++++++++++++++++++++++++++
Date: Tue May 29 13:10:25 EEST 2018
User: CanSEE
Dark Spectrum Present: No
Reference Spectrum Present: No
Number of Sampled Component Spectra: 1
Spectrometers: MAYP11278
Integration Time (usec): 230000 (MAYP11278)
Spectra Averaged: 1 (MAYP11278)
Boxcar Smoothing: 0 (MAYP11278)
Correct for Electrical Dark: No (MAYP11278)
Strobe/Lamp Enabled: No (MAYP11278)
Correct for Detector Non-linearity: No (MAYP11278)
Correct for Stray Light: No (MAYP11278)
Number of Pixels in Processed Spectrum: 2068
>>>>>Begin Processed Spectral Data<<<<<
187.82	2331.00
188.30	2236.00
188.78	2212.00
189.26	2208.00
189.73	3228.00
190.21	3306.00
190.69	3419.00
191.17	3443.00
191.64	3491.00
192.12	3407.00
192.60	3410.00
193.07	3401.00
193.55	3393.00
194.03	3424.00
194.51	3456.00
194.98	3402.00
195.46	3503.00
195.94	3426.00
196.42	3392.00
196.89	3522.00
197.37	3389.00
197.85	3397.00
198.32	3411.00
198.80	3400.00
199.28	3463.00
199.76	3458.00
200.23	3441.00
200.71	3437.00
201.19	3482.00
201.66	3500.00
202.14	3485.00
202.62	3381.00
203.09	3453.00
203.57	3423.00
204.05	3457.00
204.53	3511.00
205.00	3443.00
205.48	3421.00
205.96	3530.00
206.43	3449.00
206.91	3461.00
207.39	3567.00
207.86	3462.00
208.34	3449.00
208.82	3435.00
209.29	3510.00
209.77	3494.00
210.25	3472.00
210.72	3435.00
211.20	3451.00
211.68	3461.00
212.15	3436.00
212.63	3509.00
213.11	3459.00
213.58	3415.00
214.06	3556.00
214.53	3471.00
215.01	3524.00
215.49	3476.00
215.96	3479.00
216.44	3452.00
216.92	3423.00
217.39	3443.00
217.87	3471.00
218.35	3462.00
218.82	3389.00
219.30	3431.00
219.77	3421.00
220.25	3431.00
220.73	3522.00
221.20	3432.00
221.68	3479.00
222.15	3460.00
222.63	3502.00
223.11	3423.00
223.58	3468.00
224.06	3475.00
224.53	3416.00
225.01	3411.00
225.49	3453.00
225.96	3407.00
226.44	3462.00
226.91	3539.00
227.39	3447.00
227.87	3490.00
228.34	3489.00
228.82	3523.00
229.29	3431.00
229.77	3462.00
230.24	3461.00
230.72	3464.00
231.20	3498.00
231.67	3496.00
232.15	3475.00
232.62	3414.00
233.10	3479.00
233.57	3434.00
234.05	3626.00
234.53	3457.00
235.00	3442.00
235.48	3439.00
235.95	3435.00
236.43	3508.00
236.90	3526.00
237.38	3422.00
237.85	3485.00
238.33	3469.00
238.80	3450.00
239.28	3477.00
239.75	3410.00
240.23	3471.00
240.71	3493.00
241.18	3493.00
241.66	3444.00
242.13	3475.00
242.61	3523.00
243.08	3401.00
243.56	3461.00
244.03	3499.00
244.51	3505.00
244.98	3439.00
245.46	3541.00
245.93	4711.00
246.41	3400.00
246.88	3464.00
247.36	3441.00
247.83	3479.00
248.31	3489.00
248.78	3427.00
249.26	3470.00
249.73	3485.00
250.21	3453.00
250.68	3526.00
251.16	3435.00
251.63	3513.00
252.10	3502.00
252.58	3440.00
253.05	3533.00
253.53	3449.00
254.00	3500.00
254.48	3505.00
254.95	3480.00
255.43	3509.00
255.90	3452.00
256.38	3502.00
256.85	3456.00
257.33	3512.00
257.80	3619.00
258.27	3457.00
258.75	3473.00
259.22	3459.00
259.70	3488.00
260.17	3556.00
260.65	3448.00
261.12	3450.00
261.59	3524.00
262.07	3445.00
262.54	3526.00
263.02	3455.00
263.49	3448.00
263.97	3497.00
264.44	3527.00
264.91	3457.00
265.39	3456.00
265.86	3514.00
266.34	3550.00
266.81	3496.00
267.28	3460.00
267.76	3505.00
268.23	3529.00
268.71	3392.00
269.18	3425.00
269.65	3437.00
270.13	3454.00
270.60	3482.00
271.08	3485.00
271.55	3524.00
272.02	3441.00
272.50	3460.00
272.97	3417.00
273.44	3478.00
273.92	3628.00
274.39	3489.00
274.87	3468.00
275.34	3418.00
275.81	3455.00
276.29	3462.00
276.76	3457.00
277.23	3359.00
277.71	3401.00
278.18	3378.00
278.65	3539.00
279.13	3396.00
279.60	3444.00
280.07	3730.00
280.55	3721.00
281.02	3789.00
281.50	3560.00
281.97	3641.00
282.44	3523.00
282.91	3494.00
283.39	3495.00
283.86	3463.00
284.33	3464.00
284.81	3536.00
285.28	3487.00
285.75	3502.00
286.23	3471.00
286.70	3452.00
287.17	3497.00
287.65	3579.00
288.12	3492.00
288.59	3504.00
289.07	3420.00
289.54	3536.00
290.01	3399.00
290.48	3484.00
290.96	3501.00
291.43	3525.00
291.90	3589.00
292.38	3458.00
292.85	3548.00
293.32	3466.00
293.79	3516.00
294.27	3505.00
294.74	3463.00
295.21	3492.00
295.69	3526.00
296.16	3577.00
296.63	3567.00
297.10	3520.00
297.58	3529.00
298.05	3537.00
298.52	3493.00
298.99	3575.00
299.47	3481.00
299.94	3507.00
300.41	3429.00
300.88	3539.00
301.36	3517.00
301.83	3519.00
302.30	3470.00
302.77	3492.00
303.25	3539.00
303.72	3433.00
304.19	3511.00
304.66	3441.00
305.13	3485.00
305.61	3527.00
306.08	3491.00
306.55	3501.00
307.02	3460.00
307.49	3496.00
307.97	3492.00
308.44	3442.00
308.91	3545.00
309.38	3504.00
309.86	3510.00
310.33	3537.00
310.80	3518.00
311.27	3498.00
311.74	3529.00
312.21	3493.00
312.69	3599.00
313.16	3474.00
313.63	3488.00
314.10	3512.00
314.57	3496.00
315.05	3489.00
315.52	3553.00
315.99	3534.00
316.46	3503.00
316.93	3523.00
317.40	3501.00
317.88	3641.00
318.35	3504.00
318.82	3498.00
319.29	3448.00
319.76	3581.00
320.23	3565.00
320.70	3587.00
321.18	3492.00
321.65	3442.00
322.12	3491.00
322.59	3641.00
323.06	3529.00
323.53	3633.00
324.00	3433.00
324.48	3518.00
324.95	3512.00
325.42	3480.00
325.89	3492.00
326.36	3506.00
326.83	3584.00
327.30	3571.00
327.77	3549.00
328.24	3536.00
328.72	3547.00
329.19	3515.00
329.66	3495.00
330.13	3491.00
330.60	3590.00
331.07	3529.00
331.54	3627.00
332.01	3505.00
332.48	3620.00
332.95	3601.00
333.43	3560.00
333.90	3601.00
334.37	3546.00
334.84	3527.00
335.31	3690.00
335.78	3506.00
336.25	3555.00
336.72	3570.00
337.19	3546.00
337.66	3491.00
338.13	3487.00
338.60	3613.00
339.07	3602.00
339.54	3456.00
340.01	3520.00
340.49	3482.00
340.96	3554.00
341.43	3577.00
341.90	3497.00
342.37	3533.00
342.84	3560.00
343.31	3525.00
343.78	3481.00
344.25	3510.00
344.72	3499.00
345.19	3503.00
345.66	3573.00
346.13	3512.00
346.60	3515.00
347.07	3607.00
347.54	3497.00
348.01	3556.00
348.48	3580.00
348.95	3438.00
349.42	3503.00
349.89	3553.00
350.36	3511.00
350.83	3478.00
351.30	3571.00
351.77	3604.00
352.24	3551.00
352.71	3515.00
353.18	3527.00
353.65	3555.00
354.12	3532.00
354.59	3532.00
355.06	3537.00
355.53	3586.00
356.00	3473.00
356.47	3608.00
356.94	3467.00
357.41	3670.00
357.88	3568.00
358.35	3463.00
358.82	3501.00
359.28	3501.00
359.75	3525.00
360.22	3583.00
360.69	3581.00
361.16	3545.00
361.63	3525.00
362.10	3586.00
362.57	3521.00
363.04	3546.00
363.51	3610.00
363.98	3507.00
364.45	3487.00
364.92	3545.00
365.39	3535.00
365.86	3475.00
366.32	3579.00
366.79	3538.00
367.26	4723.00
367.73	3504.00
368.20	3491.00
368.67	3585.00
369.14	3509.00
369.61	3601.00
370.08	3538.00
370.55	3495.00
371.02	4269.00
371.48	3528.00
371.95	3477.00
372.42	3491.00
372.89	3531.00
373.36	3504.00
373.83	3474.00
374.30	3534.00
374.77	3542.00
375.23	3433.00
375.70	3587.00
376.17	3510.00
376.64	3485.00
377.11	3499.00
377.58	3535.00
378.05	3574.00
378.51	3532.00
378.98	3513.00
379.45	3525.00
379.92	3535.00
380.39	3634.00
380.86	3512.00
381.33	3571.00
381.79	3562.00
382.26	3455.00
382.73	3545.00
383.20	3524.00
383.67	3565.00
384.14	3509.00
384.60	3759.00
385.07	3542.00
385.54	3503.00
386.01	3503.00
386.48	3591.00
386.94	3495.00
387.41	3486.00
387.88	3567.00
388.35	3538.00
388.82	3590.00
389.28	3516.00
389.75	3547.00
390.22	3509.00
390.69	3542.00
391.16	3572.00
391.62	3527.00
392.09	3528.00
392.56	3476.00
393.03	3514.00
393.50	3644.00
393.96	3558.00
394.43	3545.00
394.90	3539.00
395.37	3538.00
395.83	3750.00
396.30	3478.00
396.77	3534.00
397.24	3586.00
397.70	3502.00
398.17	3528.00
398.64	3499.00
399.11	3480.00
399.57	3572.00
400.04	3461.00
400.51	3549.00
400.98	3518.00
401.44	3596.00
401.91	3523.00
402.38	3539.00
402.84	3513.00
403.31	3618.00
403.78	3557.00
404.25	3600.00
404.71	3576.00
405.18	3589.00
405.65	3466.00
406.12	3544.00
406.58	3577.00
407.05	3602.00
407.52	3544.00
407.98	4095.00
408.45	3563.00
408.92	3507.00
409.38	3652.00
409.85	3459.00
410.32	3594.00
410.78	3474.00
411.25	3617.00
411.72	3509.00
412.18	3476.00
412.65	3606.00
413.12	3531.00
413.59	3582.00
414.05	3538.00
414.52	3612.00
414.98	3529.00
415.45	3640.00
415.92	3575.00
416.38	3538.00
416.85	3615.00
417.32	3516.00
417.78	3531.00
418.25	3539.00
418.72	3579.00
419.18	3651.00
419.65	3495.00
420.12	3566.00
420.58	3497.00
421.05	3565.00
421.51	3512.00
421.98	3556.00
422.45	3524.00
422.91	3560.00
423.38	3573.00
423.85	3627.00
424.31	3566.00
424.78	3599.00
425.24	3531.00
425.71	3638.00
426.18	3571.00
426.64	3617.00
427.11	3583.00
427.57	3602.00
428.04	3567.00
428.51	3569.00
428.97	3569.00
429.44	3548.00
429.90	3583.00
430.37	3707.00
430.83	3514.00
431.30	3551.00
431.77	3664.00
432.23	3662.00
432.70	3587.00
433.16	3539.00
433.63	3595.00
434.09	3568.00
434.56	3587.00
435.03	3631.00
435.49	3655.00
435.96	3639.00
436.42	3574.00
436.89	3683.00
437.35	3606.00
437.82	3649.00
438.28	3573.00
438.75	3550.00
439.21	3809.00
439.68	3631.00
440.14	3662.00
440.61	3643.00
441.07	3588.00
441.54	3605.00
442.00	3791.00
442.47	3559.00
442.94	3637.00
443.40	3681.00
443.87	3529.00
444.33	3697.00
444.80	3672.00
445.26	3665.00
445.73	3615.00
446.19	3595.00
446.65	3570.00
447.12	3675.00
447.58	3602.00
448.05	3602.00
448.51	3664.00
448.98	3655.00
449.44	3586.00
449.91	3616.00
450.37	3584.00
450.84	3593.00
451.30	3605.00
451.77	3678.00
452.23	3583.00
452.70	3703.00
453.16	3630.00
453.62	3571.00
454.09	3605.00
454.55	3676.00
455.02	3608.00
455.48	3659.00
455.95	3631.00
456.41	3587.00
456.88	3677.00
457.34	3627.00
457.80	3616.00
458.27	3539.00
458.73	3610.00
459.20	3590.00
459.66	3602.00
460.13	3591.00
460.59	3516.00
461.05	3648.00
461.52	3625.00
461.98	3548.00
462.45	3497.00
462.91	3631.00
463.37	3498.00
463.84	3589.00
464.30	3564.00
464.76	3507.00
465.23	3513.00
465.69	3617.00
466.16	3561.00
466.62	3581.00
467.08	3558.00
467.55	3535.00
468.01	3551.00
468.48	3547.00
468.94	3527.00
469.40	3493.00
469.87	3571.00
470.33	3504.00
470.79	3512.00
471.26	3498.00
471.72	3459.00
472.18	3504.00
472.65	3511.00
473.11	3547.00
473.57	3494.00
474.04	3464.00
474.50	3486.00
474.96	3464.00
475.43	3543.00
475.89	3461.00
476.35	3526.00
476.82	3554.00
477.28	3541.00
477.74	3582.00
478.21	3517.00
478.67	3529.00
479.13	3461.00
479.59	3571.00
480.06	3530.00
480.52	3500.00
480.98	3495.00
481.45	3496.00
481.91	3519.00
482.37	3463.00
482.84	3480.00
483.30	3437.00
483.76	3495.00
484.22	3531.00
484.69	3505.00
485.15	3451.00
485.61	3375.00
486.07	3429.00
486.54	3418.00
487.00	3510.00
487.46	3400.00
487.92	3443.00
488.39	3454.00
488.85	3497.00
489.31	3473.00
489.77	3510.00
490.24	3452.00
490.70	3470.00
491.16	3470.00
491.62	3460.00
492.09	3423.00
492.55	3507.00
493.01	3518.00
493.47	3514.00
493.94	3462.00
494.40	3428.00
494.86	3467.00
495.32	3499.00
495.78	3504.00
496.25	3483.00
496.71	3477.00
497.17	3590.00
497.63	3572.00
498.09	3490.00
498.56	3517.00
499.02	3534.00
499.48	3647.00
499.94	3529.00
500.40	3516.00
500.87	3531.00
501.33	3537.00
501.79	3559.00
502.25	3528.00
502.71	3860.00
503.17	3555.00
503.64	3585.00
504.10	3560.00
504.56	3623.00
505.02	3608.00
505.48	3593.00
505.94	3613.00
506.40	3698.00
506.87	3657.00
507.33	3675.00
507.79	3724.00
508.25	3614.00
508.71	3675.00
509.17	3664.00
509.63	3701.00
510.10	3721.00
510.56	3718.00
511.02	3784.00
511.48	3873.00
511.94	3773.00
512.40	3782.00
512.86	3758.00
513.32	3917.00
513.78	3759.00
514.25	3939.00
514.71	4556.00
515.17	3829.00
515.63	3977.00
516.09	4016.00
516.55	3978.00
517.01	4102.00
517.47	4051.00
517.93	4047.00
518.39	4218.00
518.85	4135.00
519.32	4150.00
519.78	4169.00
520.24	4216.00
520.70	4352.00
521.16	4374.00
521.62	4429.00
522.08	4440.00
522.54	4424.00
523.00	4536.00
523.46	4611.00
523.92	4610.00
524.38	4805.00
524.84	4725.00
525.30	4759.00
525.76	4788.00
526.22	4671.00
526.68	4677.00
527.14	4761.00
527.60	4848.00
528.06	4935.00
528.52	5085.00
528.98	5075.00
529.44	5044.00
529.90	5125.00
530.36	5249.00
530.82	5191.00
531.28	5278.00
531.74	5248.00
532.20	5193.00
532.66	5177.00
533.12	5290.00
533.58	5261.00
534.04	5289.00
534.50	5361.00
534.96	5375.00
535.42	5507.00
535.88	5504.00
536.34	5435.00
536.80	5353.00
537.26	5499.00
537.72	5569.00
538.18	5540.00
538.64	5643.00
539.10	5548.00
539.56	5786.00
540.02	5535.00
540.48	5629.00
540.94	5543.00
541.40	5640.00
541.86	5662.00
542.32	5653.00
542.78	5693.00
543.24	5828.00
543.69	5726.00
544.15	5975.00
544.61	5774.00
545.07	5817.00
545.53	5814.00
545.99	5901.00
546.45	5849.00
546.91	5871.00
547.37	5869.00
547.83	5877.00
548.29	5947.00
548.74	5947.00
549.20	5895.00
549.66	6093.00
550.12	6001.00
550.58	5971.00
551.04	6046.00
551.50	6025.00
551.96	6165.00
552.42	6063.00
552.87	6007.00
553.33	6104.00
553.79	6121.00
554.25	6140.00
554.71	6067.00
555.17	6144.00
555.63	6231.00
556.08	6029.00
556.54	6040.00
557.00	5943.00
557.46	6059.00
557.92	6152.00
558.38	5988.00
558.83	5897.00
559.29	5888.00
559.75	5976.00
560.21	5890.00
560.67	6072.00
561.13	6005.00
561.58	5917.00
562.04	5901.00
562.50	5909.00
562.96	5898.00
563.42	5895.00
563.87	5753.00
564.33	5828.00
564.79	5732.00
565.25	5761.00
565.71	5741.00
566.16	5777.00
566.62	5713.00
567.08	5707.00
567.54	5690.00
568.00	5631.00
568.45	5570.00
568.91	5510.00
569.37	5541.00
569.83	5484.00
570.28	5384.00
570.74	5408.00
571.20	5378.00
571.66	5365.00
572.11	5336.00
572.57	5371.00
573.03	5292.00
573.49	5269.00
573.94	5265.00
574.40	5285.00
574.86	5221.00
575.32	5043.00
575.77	5165.00
576.23	5059.00
576.69	5201.00
577.15	5078.00
577.60	5024.00
578.06	5001.00
578.52	5055.00
578.97	4971.00
579.43	4963.00
579.89	4961.00
580.34	4989.00
580.80	4984.00
581.26	4953.00
581.72	4972.00
582.17	4980.00
582.63	4925.00
583.09	4923.00
583.54	4940.00
584.00	4922.00
584.46	4945.00
584.91	4866.00
585.37	4981.00
585.83	4787.00
586.28	4796.00
586.74	4797.00
587.20	4765.00
587.65	4833.00
588.11	4672.00
588.57	4667.00
589.02	4548.00
589.48	4523.00
589.94	4663.00
590.39	4719.00
590.85	4686.00
591.30	4685.00
591.76	4736.00
592.22	4698.00
592.67	4687.00
593.13	4689.00
593.59	4756.00
594.04	4675.00
594.50	4629.00
594.95	4733.00
595.41	4599.00
595.87	4673.00
596.32	4689.00
596.78	4717.00
597.23	4786.00
597.69	4661.00
598.15	4592.00
598.60	4665.00
599.06	4717.00
599.51	4700.00
599.97	4670.00
600.43	4719.00
600.88	4661.00
601.34	4663.00
601.79	4557.00
602.25	4749.00
602.70	4566.00
603.16	4627.00
603.61	4663.00
604.07	4560.00
604.53	4646.00
604.98	4618.00
605.44	4683.00
605.89	4589.00
606.35	4547.00
606.80	4581.00
607.26	4584.00
607.71	4525.00
608.17	4549.00
608.62	4539.00
609.08	4627.00
609.53	4551.00
609.99	4462.00
610.44	4497.00
610.90	4493.00
611.35	4436.00
611.81	4582.00
612.26	4480.00
612.72	4408.00
613.17	4568.00
613.63	4325.00
614.08	4313.00
614.54	4325.00
614.99	4353.00
615.45	4360.00
615.90	4301.00
616.36	4263.00
616.81	4291.00
617.27	4294.00
617.72	4324.00
618.18	4317.00
618.63	4312.00
619.09	4286.00
619.54	4344.00
619.99	4276.00
620.45	4344.00
620.90	4299.00
621.36	4264.00
621.81	4325.00
622.27	4303.00
622.72	4265.00
623.18	4189.00
623.63	4227.00
624.08	4313.00
624.54	4149.00
624.99	4215.00
625.45	4240.00
625.90	4128.00
626.35	4223.00
626.81	4231.00
627.26	4152.00
627.72	4230.00
628.17	4215.00
628.62	4209.00
629.08	4187.00
629.53	4209.00
629.99	4155.00
630.44	4269.00
630.89	4212.00
631.35	4245.00
631.80	4203.00
632.26	4213.00
632.71	4178.00
633.16	4227.00
633.62	4137.00
634.07	4191.00
634.52	4136.00
634.98	4197.00
635.43	4131.00
635.88	4122.00
636.34	4195.00
636.79	4183.00
637.24	4121.00
637.70	4229.00
638.15	4213.00
638.60	4125.00
639.06	4096.00
639.51	4027.00
639.96	4052.00
640.42	4100.00
640.87	4138.00
641.32	4029.00
641.78	4033.00
642.23	4040.00
642.68	3957.00
643.14	3958.00
643.59	4016.00
644.04	3954.00
644.49	3911.00
644.95	3937.00
645.40	3895.00
645.85	3947.00
646.31	3920.00
646.76	3875.00
647.21	3893.00
647.66	3843.00
648.12	3858.00
648.57	3775.00
649.02	3915.00
649.47	3853.00
649.93	4012.00
650.38	3806.00
650.83	3771.00
651.28	3829.00
651.74	3795.00
652.19	3783.00
652.64	3802.00
653.09	3780.00
653.55	3776.00
654.00	3770.00
654.45	3777.00
654.90	3769.00
655.35	3770.00
655.81	3717.00
656.26	3624.00
656.71	3683.00
657.16	3744.00
657.62	3790.00
658.07	3682.00
658.52	3716.00
658.97	3639.00
659.42	3913.00
659.88	3693.00
660.33	3764.00
660.78	3689.00
661.23	3647.00
661.68	3685.00
662.13	3623.00
662.59	3621.00
663.04	3679.00
663.49	3615.00
663.94	3614.00
664.39	3600.00
664.84	3564.00
665.30	3619.00
665.75	3565.00
666.20	3630.00
666.65	3615.00
667.10	3709.00
667.55	3627.00
668.00	3539.00
668.46	3570.00
668.91	3533.00
669.36	3675.00
669.81	3474.00
670.26	3561.00
670.71	3585.00
671.16	3553.00
671.61	3605.00
672.06	3669.00
672.52	3544.00
672.97	3517.00
673.42	3605.00
673.87	3685.00
674.32	3545.00
674.77	3530.00
675.22	3474.00
675.67	3555.00
676.12	3512.00
676.57	3517.00
677.02	3518.00
677.47	3497.00
677.93	3694.00
678.38	3493.00
678.83	3535.00
679.28	3553.00
679.73	3540.00
680.18	3573.00
680.63	3552.00
681.08	3464.00
681.53	3482.00
681.98	3508.00
682.43	3606.00
682.88	3603.00
683.33	3599.00
683.78	3600.00
684.23	3665.00
684.68	3609.00
685.13	3621.00
685.58	3589.00
686.03	3647.00
686.48	3549.00
686.93	3579.00
687.38	3541.00
687.83	3670.00
688.28	3667.00
688.73	3827.00
689.18	3737.00
689.63	3734.00
690.08	3763.00
690.53	3851.00
690.98	3842.00
691.43	3951.00
691.88	3972.00
692.33	4083.00
692.78	4140.00
693.23	4292.00
693.68	4319.00
694.13	4364.00
694.58	4465.00
695.03	4833.00
695.48	4711.00
695.93	4788.00
696.38	5068.00
696.83	5121.00
697.28	5179.00
697.72	5355.00
698.17	5403.00
698.62	5639.00
699.07	5797.00
699.52	5858.00
699.97	5984.00
700.42	6240.00
700.87	6401.00
701.32	6650.00
701.77	6617.00
702.22	6856.00
702.67	6933.00
703.11	7168.00
703.56	7337.00
704.01	7675.00
704.46	7819.00
704.91	8012.00
705.36	8213.00
705.81	8444.00
706.26	8486.00
706.70	8721.00
707.15	8970.00
707.60	9186.00
708.05	9325.00
708.50	9502.00
708.95	9673.00
709.40	9847.00
709.84	10135.00
710.29	10225.00
710.74	10414.00
711.19	10621.00
711.64	10775.00
712.09	10912.00
712.53	11063.00
712.98	11419.00
713.43	11513.00
713.88	11642.00
714.33	11900.00
714.78	11883.00
715.22	12079.00
715.67	12140.00
716.12	12026.00
716.57	11832.00
717.02	11348.00
717.46	11409.00
717.91	11359.00
718.36	11223.00
718.81	11221.00
719.26	11281.00
719.70	11524.00
720.15	11797.00
720.60	12241.00
721.05	13061.00
721.49	13712.00
721.94	13964.00
722.39	14033.00
722.84	13837.00
723.28	13390.00
723.73	13440.00
724.18	13347.00
724.63	13738.00
725.07	13846.00
725.52	14096.00
725.97	14381.00
726.42	14525.00
726.86	14908.00
727.31	14567.00
727.76	14858.00
728.21	15098.00
728.65	14994.00
729.10	15205.00
729.55	15553.00
729.99	15880.00
730.44	16042.00
730.89	16191.00
731.33	16520.00
731.78	17071.00
732.23	17326.00
732.68	17773.00
733.12	18033.00
733.57	18258.00
734.02	18671.00
734.46	18876.00
734.91	18983.00
735.36	19065.00
735.80	19142.00
736.25	19407.00
736.70	19470.00
737.14	19700.00
737.59	19967.00
738.04	19999.00
738.48	19812.00
738.93	19775.00
739.37	20230.00
739.82	20513.00
740.27	20672.00
740.71	20520.00
741.16	20563.00
741.61	20644.00
742.05	20879.00
742.50	20937.00
742.94	21124.00
743.39	21324.00
743.84	21204.00
744.28	21497.00
744.73	21395.00
745.18	21657.00
745.62	21908.00
746.07	21809.00
746.51	21761.00
746.96	21789.00
747.40	21652.00
747.85	21783.00
748.30	21752.00
748.74	21794.00
749.19	21676.00
749.63	21786.00
750.08	21939.00
750.52	21919.00
750.97	21718.00
751.42	21955.00
751.86	21901.00
752.31	21891.00
752.75	21866.00
753.20	21691.00
753.64	21951.00
754.09	21954.00
754.53	21981.00
754.98	21950.00
755.42	22071.00
755.87	21940.00
756.31	21763.00
756.76	21599.00
757.20	21776.00
757.65	21412.00
758.09	20975.00
758.54	20451.00
758.98	18519.00
759.43	14796.00
759.87	10976.00
760.32	8768.00
760.76	8605.00
761.21	10294.00
761.65	12289.00
762.10	12877.00
762.54	12257.00
762.99	11560.00
763.43	11983.00
763.88	12595.00
764.32	13483.00
764.77	14631.00
765.21	15739.00
765.66	16443.00
766.10	17343.00
766.54	18202.00
766.99	18904.00
767.43	19631.00
767.88	20111.00
768.32	20433.00
768.77	20722.00
769.21	21140.00
769.66	20996.00
770.10	21504.00
770.54	21615.00
770.99	21530.00
771.43	21552.00
771.88	21394.00
772.32	21544.00
772.76	21482.00
773.21	21578.00
773.65	21467.00
774.10	21318.00
774.54	21233.00
774.98	21396.00
775.43	21721.00
775.87	21737.00
776.31	21889.00
776.76	21757.00
777.20	21778.00
777.65	21613.00
778.09	21496.00
778.53	21425.00
778.98	21329.00
779.42	21246.00
779.86	21319.00
780.31	21199.00
780.75	21412.00
781.19	21388.00
781.64	21489.00
782.08	21663.00
782.52	21515.00
782.97	21235.00
783.41	21162.00
783.85	20978.00
784.30	20896.00
784.74	20697.00
785.18	20760.00
785.63	20815.00
786.07	20831.00
786.51	20995.00
786.95	20918.00
787.40	20706.00
787.84	20716.00
788.28	20600.00
788.73	20596.00
789.17	20294.00
789.61	20123.00
790.05	19983.00
790.50	19745.00
790.94	19839.00
791.38	19860.00
791.82	19897.00
792.27	19895.00
792.71	19914.00
793.15	20109.00
793.59	19958.00
794.04	19857.00
794.48	19758.00
794.92	19565.00
795.36	19315.00
795.81	19253.00
796.25	19173.00
796.69	19354.00
797.13	19573.00
797.57	19690.00
798.02	19935.00
798.46	19888.00
798.90	19844.00
799.34	19496.00
799.79	19460.00
800.23	19166.00
800.67	19060.00
801.11	19006.00
801.55	18961.00
801.99	18809.00
802.44	18784.00
802.88	19125.00
803.32	19234.00
803.76	19275.00
804.20	19183.00
804.64	19149.00
805.09	19320.00
805.53	19179.00
805.97	19126.00
806.41	18912.00
806.85	18687.00
807.29	18564.00
807.74	18500.00
808.18	18501.00
808.62	18428.00
809.06	18409.00
809.50	18399.00
809.94	18455.00
810.38	18477.00
810.82	18566.00
811.27	18404.00
811.71	17971.00
812.15	17697.00
812.59	17246.00
813.03	16924.00
813.47	16479.00
813.91	16111.00
814.35	15884.00
814.79	15644.00
815.23	15680.00
815.67	15305.00
816.12	15413.00
816.56	15281.00
817.00	15473.00
817.44	15715.00
817.88	15590.00
818.32	15323.00
818.76	15468.00
819.20	15520.00
819.64	15641.00
820.08	15763.00
820.52	16050.00
820.96	16372.00
821.40	16129.00
821.84	15621.00
822.28	14955.00
822.72	14777.00
823.16	14731.00
823.60	15503.00
824.04	16433.00
824.48	16655.00
824.92	16523.00
825.36	16641.00
825.80	16389.00
826.24	16412.00
826.68	16109.00
827.12	16088.00
827.56	15777.00
828.00	15723.00
828.44	15942.00
828.88	16140.00
829.32	16197.00
829.76	16202.00
830.20	16485.00
830.64	16253.00
831.08	16244.00
831.52	16058.00
831.96	15794.00
832.40	15620.00
832.84	15852.00
833.28	15875.00
833.72	16160.00
834.16	16486.00
834.60	16843.00
835.04	17162.00
835.48	17194.00
835.91	17185.00
836.35	17088.00
836.79	16995.00
837.23	16987.00
837.67	16708.00
838.11	16586.00
838.55	16661.00
838.99	16633.00
839.43	16899.00
839.87	16945.00
840.30	17201.00
840.74	17381.00
841.18	17390.00
841.62	17525.00
842.06	17541.00
842.50	17631.00
842.94	17353.00
843.38	17052.00
843.81	16890.00
844.25	16775.00
844.69	16547.00
845.13	16606.00
845.57	16551.00
846.01	16571.00
846.45	16884.00
846.88	16943.00
847.32	17187.00
847.76	17330.00
848.20	17448.00
848.64	17169.00
849.08	16888.00
849.51	17067.00
849.95	16556.00
850.39	16633.00
850.83	16763.00
851.27	16823.00
851.70	16441.00
852.14	16396.00
852.58	15928.00
853.02	15521.00
853.46	15191.00
853.89	15127.00
854.33	15178.00
854.77	15910.00
855.21	16654.00
855.65	17155.00
856.08	17282.00
856.52	17192.00
856.96	17177.00
857.40	16786.00
857.83	16383.00
858.27	16421.00
858.71	16098.00
859.15	16138.00
859.58	16169.00
860.02	16361.00
860.46	16655.00
860.89	16958.00
861.33	16941.00
861.77	16989.00
862.21	17354.00
862.64	17453.00
863.08	17139.00
863.52	17053.00
863.95	16747.00
864.39	16583.00
864.83	16026.00
865.27	15301.00
865.70	15193.00
866.14	14911.00
866.58	14885.00
867.01	15674.00
867.45	16348.00
867.89	16386.00
868.32	16796.00
868.76	17061.00
869.20	17052.00
869.63	17053.00
870.07	16753.00
870.51	16347.00
870.94	16093.00
871.38	15840.00
871.82	15447.00
872.25	15575.00
872.69	15431.00
873.13	15515.00
873.56	15777.00
874.00	15787.00
874.43	16062.00
874.87	16187.00
875.31	16520.00
875.74	16333.00
876.18	16693.00
876.61	16609.00
877.05	16561.00
877.49	16241.00
877.92	16013.00
878.36	15793.00
878.79	15639.00
879.23	15377.00
879.67	15028.00
880.10	15164.00
880.54	14992.00
880.97	15205.00
881.41	15679.00
881.84	16137.00
882.28	16370.00
882.72	16369.00
883.15	16663.00
883.59	16641.00
884.02	16676.00
884.46	16526.00
884.89	16265.00
885.33	16004.00
885.76	15484.00
886.20	15135.00
886.63	15070.00
887.07	14951.00
887.50	14988.00
887.94	15033.00
888.37	15131.00
888.81	15386.00
889.24	15490.00
889.68	15737.00
890.11	15754.00
890.55	16025.00
890.98	16114.00
891.42	16014.00
891.85	15968.00
892.29	15851.00
892.72	15576.00
893.16	14975.00
893.59	14769.00
894.03	14281.00
894.46	13810.00
894.90	13452.00
895.33	12985.00
895.77	12933.00
896.20	12903.00
896.63	12869.00
897.07	12901.00
897.50	12859.00
897.94	13002.00
898.37	13404.00
898.81	12511.00
899.24	12683.00
899.68	13283.00
900.11	13097.00
900.54	12674.00
900.98	12475.00
901.41	12490.00
901.85	12538.00
902.28	12544.00
902.71	12554.00
903.15	13124.00
903.58	13459.00
904.02	13462.00
904.45	13456.00
904.88	13449.00
905.32	13245.00
905.75	13327.00
906.18	12825.00
906.62	13012.00
907.05	12761.00
907.48	12632.00
907.92	12496.00
908.35	12665.00
908.79	12289.00
909.22	12172.00
909.65	12121.00
910.09	12113.00
910.52	12022.00
910.95	11953.00
911.38	12087.00
911.82	11644.00
912.25	12033.00
912.68	12074.00
913.12	11842.00
913.55	12038.00
913.98	12468.00
914.42	12815.00
914.85	12913.00
915.28	12362.00
915.72	12360.00
916.15	12103.00
916.58	12351.00
917.01	11891.00
917.45	11666.00
917.88	11966.00
918.31	12089.00
918.74	12518.00
919.18	12609.00
919.61	12641.00
920.04	12846.00
920.47	12964.00
920.91	12972.00
921.34	12925.00
921.77	12986.00
922.20	13245.00
922.64	13236.00
923.07	13209.00
923.50	12789.00
923.93	12714.00
924.37	12699.00
924.80	12400.00
925.23	12315.00
925.66	11940.00
926.09	11363.00
926.53	11186.00
926.96	10889.00
927.39	10559.00
927.82	10021.00
928.25	9715.00
928.69	9621.00
929.12	9439.00
929.55	9123.00
929.98	8745.00
930.41	8333.00
930.84	7994.00
931.28	7595.00
931.71	7236.00
932.14	6689.00
932.57	6497.00
933.00	6245.00
933.43	6138.00
933.86	5813.00
934.30	5693.00
934.73	6113.00
935.16	5911.00
935.59	5655.00
936.02	5897.00
936.45	5767.00
936.88	5772.00
937.31	6231.00
937.75	6334.00
938.18	6617.00
938.61	6766.00
939.04	7041.00
939.47	6936.00
939.90	6653.00
940.33	6499.00
940.76	6111.00
941.19	6040.00
941.62	5882.00
942.05	5798.00
942.48	5483.00
942.91	5421.00
943.35	5679.00
943.78	5385.00
944.21	5373.00
944.64	5672.00
945.07	5759.00
945.50	5640.00
945.93	5748.00
946.36	5910.00
946.79	5980.00
947.22	6331.00
947.65	6119.00
948.08	5909.00
948.51	6159.00
948.94	6304.00
949.37	6281.00
949.80	5965.00
950.23	6060.00
950.66	6270.00
951.09	6263.00
951.52	6001.00
951.95	6088.00
952.38	6178.00
952.81	6477.00
953.24	6627.00
953.67	6697.00
954.10	6669.00
954.53	6860.00
954.96	6856.00
955.39	6980.00
955.82	7239.00
956.25	7092.00
956.68	7256.00
957.11	7257.00
957.53	7070.00
957.96	7050.00
958.39	6930.00
958.82	6724.00
959.25	6816.00
959.68	7074.00
960.11	7140.00
960.54	7302.00
960.97	7613.00
961.40	7771.00
961.83	7727.00
962.26	7728.00
962.68	8362.00
963.11	8282.00
963.54	8400.00
963.97	8451.00
964.40	8477.00
964.83	8622.00
965.26	8702.00
965.69	8586.00
966.11	8554.00
966.54	8522.00
966.97	8841.00
967.40	8965.00
967.83	9110.00
968.26	9071.00
968.69	9009.00
969.11	9015.00
969.54	9051.00
969.97	8988.00
970.40	9260.00
970.83	9217.00
971.26	9255.00
971.68	9266.00
972.11	9400.00
972.54	9420.00
972.97	9448.00
973.40	9259.00
973.82	9235.00
974.25	9237.00
974.68	9086.00
975.11	9045.00
975.54	8899.00
975.96	8851.00
976.39	8748.00
976.82	8958.00
977.25	8769.00
977.67	8864.00
978.10	8834.00
978.53	8888.00
978.96	9166.00
979.38	9333.00
979.81	9265.00
980.24	9681.00
980.67	9787.00
981.09	9890.00
981.52	9896.00
981.95	9894.00
982.38	9906.00
982.80	10014.00
983.23	10119.00
983.66	10049.00
984.08	10033.00
984.51	9961.00
984.94	9855.00
985.37	9854.00
985.79	9705.00
986.22	9460.00
986.65	9361.00
987.07	9259.00
987.50	9329.00
987.93	9407.00
988.35	9287.00
988.78	9493.00
989.21	9515.00
989.63	9629.00
990.06	9713.00
990.49	9868.00
990.91	10084.00
991.34	10034.00
991.77	10118.00
992.19	10013.00
992.62	10011.00
993.05	9914.00
993.47	9944.00
993.90	9931.00
994.32	9705.00
994.75	9555.00
995.18	9410.00
995.60	9373.00
996.03	9165.00
996.45	9249.00
996.88	9261.00
997.31	9090.00
997.73	9096.00
998.16	9105.00
998.58	9143.00
999.01	9184.00
999.44	9371.00
999.86	9453.00
1000.29	9440.00
1000.71	9483.00
1001.14	9473.00
1001.56	9468.00
1001.99	9454.00
1002.41	9319.00
1002.84	9186.00
1003.27	8997.00
1003.69	9018.00
1004.12	8722.00
1004.54	8719.00
1004.97	8539.00
1005.39	8513.00
1005.82	8440.00
1006.24	8476.00
1006.67	8356.00
1007.09	8379.00
1007.52	8387.00
1007.94	8411.00
1008.37	8617.00
1008.79	8519.00
1009.22	8517.00
1009.64	8611.00
1010.07	8606.00
1010.49	8539.00
1010.92	8562.00
1011.34	8624.00
1011.77	8592.00
1012.19	8573.00
1012.62	8568.00
1013.04	8375.00
1013.46	8467.00
1013.89	8091.00
1014.31	8064.00
1014.74	7881.00
1015.16	7930.00
1015.59	7866.00
1016.01	7885.00
1016.44	7844.00
1016.86	8666.00
1017.28	7884.00
1017.71	7910.00
1018.13	8210.00
1018.56	8145.00
1018.98	8172.00
1019.40	8151.00
1019.83	8200.00
1020.25	8207.00
1020.68	8312.00
1021.10	8417.00
1021.52	8330.00
1021.95	8635.00
1022.37	8403.00
1022.79	8379.00
1023.22	8307.00
1023.64	8323.00
1024.07	8287.00
1024.49	8149.00
1024.91	7943.00
1025.34	7999.00
1025.76	7967.00
1026.18	7854.00
1026.61	7795.00
1027.03	7773.00
1027.45	7817.00
1027.88	7797.00
1028.30	7915.00
1028.72	7973.00
1029.15	7973.00
1029.57	7987.00
1029.99	8051.00
1030.41	7962.00
1030.84	8079.00
1031.26	8035.00
1031.68	7951.00
1032.11	7844.00
1032.53	7815.00
1032.95	7667.00
1033.37	7698.00
1033.80	7606.00
1034.22	7510.00
1034.64	7491.00
1035.06	7259.00
1035.49	7201.00
1035.91	7175.00
1036.33	7003.00
1036.75	7150.00
1037.18	7135.00
1037.60	7127.00
1038.02	7063.00
1038.44	7087.00
1038.87	7037.00
1039.29	7077.00
1039.71	7037.00
1040.13	7069.00
1040.55	7202.00
1040.98	7143.00
1041.40	7083.00
1041.82	7077.00
1042.24	6932.00
1042.66	6919.00
1043.09	6738.00
1043.51	6747.00
1043.93	6695.00
1044.35	6647.00
1044.77	6554.00
1045.20	6585.00
1045.62	6411.00
1046.04	6369.00
1046.46	6381.00
1046.88	6231.00
1047.30	6347.00
1047.72	6285.00
1048.15	6258.00
1048.57	6161.00
1048.99	6162.00
1049.41	6125.00
1049.83	6191.00
1050.25	6242.00
1050.67	6148.00
1051.09	6058.00
1051.52	6129.00
1051.94	5935.00
1052.36	6047.00
1052.78	6022.00
1053.20	5989.00
1053.62	5967.00
1054.04	5969.00
1054.46	5953.00
1054.88	6021.00
1055.30	5925.00
1055.72	5859.00
1056.14	5807.00
1056.57	5905.00
1056.99	5661.00
1057.41	5604.00
1057.83	5628.00
1058.25	5579.00
1058.67	5471.00
1059.09	5446.00
1059.51	5453.00
1059.93	5397.00
1060.35	5379.00
1060.77	5427.00
1061.19	5398.00
1061.61	5376.00
1062.03	5338.00
1062.45	5266.00
1062.87	5339.00
1063.29	5294.00
1063.71	5238.00
1064.13	5237.00
1064.55	5173.00
1064.97	5256.00
1065.39	5183.00
1065.81	5177.00
1066.23	5163.00
1066.65	5057.00
1067.07	5111.00
1067.49	5021.00
1067.91	4983.00
1068.33	4954.00
1068.75	5009.00
1069.17	4950.00
1069.59	4991.00
1070.00	4830.00
1070.42	4909.00
1070.84	4873.00
1071.26	4727.00
1071.68	4713.00
1072.10	4832.00
1072.52	4784.00
1072.94	4699.00
1073.36	4703.00
1073.78	4757.00
1074.20	4728.00
1074.62	4717.00
1075.03	4715.00
1075.45	4710.00
1075.87	4737.00
1076.29	4667.00
1076.71	4710.00
1077.13	4747.00
1077.55	4553.00
1077.97	4637.00
1078.38	4610.00
1078.80	4574.00
1079.22	4573.00
1079.64	4519.00
1080.06	4485.00
1080.48	4489.00
1080.89	4435.00
1081.31	4458.00
1081.73	4398.00
1082.15	4381.00
1082.57	4419.00
1082.99	4390.00
1083.40	4332.00
1083.82	4403.00
1084.24	4304.00
1084.66	4315.00
1085.08	4316.00
1085.49	4224.00
1085.91	4278.00
1086.33	5414.00
1086.75	4264.00
1087.17	4234.00
1087.58	4278.00
1088.00	4256.00
1088.42	4337.00
1088.84	4253.00
1089.25	4149.00
1089.67	4204.00
1090.09	4163.00
1090.51	4085.00
1090.92	4167.00
1091.34	4083.00
1091.76	4031.00
1092.18	4055.00
1092.59	3988.00
1093.01	4009.00
1093.43	4007.00
1093.84	3998.00
1094.26	3963.00
1094.68	3971.00
1095.10	3937.00
1095.51	3952.00
1095.93	3901.00
1096.35	3956.00
1096.76	3921.00
1097.18	3933.00
1097.60	3863.00
1098.01	3870.00
1098.43	3822.00
1098.85	3885.00
1099.26	3784.00
1099.68	3860.00
1100.10	3748.00
1100.51	3742.00
1100.93	3746.00
1101.35	3759.00
1101.76	3753.00
1102.18	4209.00
1102.60	3790.00
1103.01	3593.00
1103.43	3701.00
1103.84	3698.00
1104.26	3647.00
1104.68	3681.00
1105.09	3575.00
1105.51	3609.00
1105.92	3697.00
1106.34	3579.00
1106.76	3635.00
1107.17	3629.00
1107.59	3615.00
1108.00	3515.00
1108.42	3556.00
1108.83	3505.00
1109.25	3493.00
1109.67	3469.00
1110.08	3462.00
1110.50	3455.00
1110.91	3453.00
1111.33	3429.00
1111.74	3412.00
1112.16	3443.00
1112.57	3419.00
1112.99	3365.00
1113.41	3423.00
1113.82	3401.00
1114.24	3384.00
1114.65	3323.00
1115.07	3271.00
1115.48	3147.00
1115.90	2189.00
1116.31	2207.00
1116.73	2214.00
1117.14	2208.00
>>>>>End Processed Spectral Data<<<<<
